Date	2025年07月03日木曜日 09時51分24秒
Spectrometers	SR401765
ダーク	使用
リファレンス	使用
積分時間[msec]	300
平均回数	1
ｽﾑｰｼﾞﾝｸﾞ	5
Electrical Dark	USE
ピクセル数	3648
計測モード	反射率
保存開始波長[nm]	598.495
保存終了波長[nm]	1274.802
保存ﾋﾟｯﾁ波長[nm]	全波長

>>>>>>>>>> Data Start <<<<<<<<<<<<
598.495	-8.954072
598.713	-8.954072
598.931	-8.954072
599.148	-8.954072
599.366	0.000000
599.584	0.000000
599.802	0.000000
600.020	0.000000
600.238	0.000000
600.455	-266.894830
600.673	-603.980570
600.891	52.871405
601.109	58.269833
601.326	59.030376
601.544	59.913724
601.762	60.506896
601.979	60.469481
602.197	60.987670
602.415	61.264961
602.632	60.943343
602.850	60.670841
603.067	60.632322
603.285	60.776443
603.502	61.096719
603.720	61.513641
603.938	61.593921
604.155	61.588504
604.372	61.651041
604.590	61.576856
604.807	61.641757
605.025	61.911901
605.242	62.394757
605.460	62.610702
605.677	62.568580
605.894	62.447254
606.112	62.257227
606.329	62.548948
606.546	63.033985
606.764	63.417426
606.981	63.508688
607.198	63.476322
607.415	63.440407
607.633	63.359113
607.850	63.384156
608.067	63.518027
608.284	63.645728
608.501	63.823738
608.718	63.547590
608.935	63.238998
609.153	63.115725
609.370	63.347068
609.587	63.607476
609.804	63.956629
610.021	64.038947
610.238	63.917463
610.455	63.891589
610.672	64.026592
610.889	64.241137
611.106	64.441547
611.323	64.724065
611.540	64.821188
611.756	64.703247
611.973	64.851487
612.190	65.124825
612.407	65.663551
612.624	66.059409
612.841	66.198869
613.057	66.182794
613.274	66.133435
613.491	66.248203
613.708	66.046347
613.925	66.153649
614.141	66.295423
614.358	66.308131
614.575	66.276159
614.791	66.091311
615.008	66.045184
615.225	66.310477
615.441	66.558577
615.658	66.598551
615.874	66.672997
616.091	66.950216
616.307	67.290876
616.524	67.853802
616.740	68.375844
616.957	68.490653
617.173	68.611848
617.390	68.857975
617.606	68.907794
617.823	68.943993
618.039	69.151962
618.256	69.335933
618.472	69.325403
618.688	69.293037
618.905	69.395726
619.121	69.433696
619.337	69.635581
619.554	69.815834
619.770	69.857266
619.986	69.974188
620.202	69.949387
620.419	69.811003
620.635	69.604840
620.851	69.522757
621.067	69.355991
621.283	69.011456
621.499	68.752263
621.716	68.744211
621.932	68.838178
622.148	69.132587
622.364	69.423030
622.580	69.900820
622.796	70.357158
623.012	70.834769
623.228	71.252165
623.444	71.671658
623.660	72.036440
623.876	72.072563
624.092	71.989301
624.308	72.157335
624.524	72.424417
624.740	72.611401
624.955	72.520926
625.171	72.426177
625.387	72.411340
625.603	72.463664
625.819	72.412750
626.034	72.268184
626.250	72.472677
626.466	72.739158
626.682	72.864804
626.897	72.855449
627.113	72.803841
627.329	72.677238
627.544	72.750696
627.760	72.925415
627.976	73.158920
628.191	73.469467
628.407	73.625232
628.623	73.737743
628.838	73.871586
629.054	73.686718
629.269	73.471519
629.485	73.463381
629.700	73.905080
629.916	74.351216
630.131	74.584335
630.347	74.687897
630.562	74.871741
630.777	75.274916
630.993	75.630586
631.208	75.866986
631.424	76.264003
631.639	76.674735
631.854	76.933504
632.070	76.897022
632.285	76.691021
632.500	76.618981
632.715	76.715643
632.931	76.722223
633.146	76.675209
633.361	76.801188
633.576	77.043751
633.791	77.225465
634.007	77.208776
634.222	77.061429
634.437	76.993532
634.652	76.956934
634.867	77.028478
635.082	77.196647
635.297	77.569223
635.512	77.749303
635.727	77.698989
635.942	77.440665
636.157	77.268858
636.372	77.442544
636.587	77.929504
636.802	78.344059
637.017	78.711546
637.232	78.909827
637.447	79.019060
637.662	78.743676
637.876	78.644126
638.091	78.458191
638.306	78.364525
638.521	78.320234
638.736	78.144119
638.951	77.759144
639.165	77.517784
639.380	77.139499
639.595	76.706997
639.809	76.360533
640.024	76.123751
640.239	75.811868
640.453	75.760849
640.668	75.831775
640.883	75.881151
641.097	76.069279
641.312	76.450408
641.526	76.878622
641.741	77.352456
641.955	77.665867
642.170	77.927060
642.384	78.405571
642.599	78.873563
642.813	79.095929
643.028	79.373014
643.242	79.670567
643.457	79.971517
643.671	80.419432
643.885	80.711891
644.100	80.905499
644.314	81.310847
644.528	81.513206
644.743	81.380231
644.957	81.295782
645.171	81.454004
645.386	81.488216
645.600	81.604233
645.814	81.341183
646.028	80.747923
646.242	80.284114
646.457	79.890879
646.671	79.298343
646.885	79.014059
647.099	79.129735
647.313	79.467579
647.527	79.789869
647.741	80.090193
647.955	80.330673
648.169	80.531624
648.383	80.506252
648.597	80.450303
648.811	80.604652
649.025	80.981759
649.239	81.216312
649.453	81.126183
649.667	81.002854
649.881	80.936685
650.095	80.838041
650.309	80.686160
650.523	80.639875
650.737	80.497741
650.950	80.279363
651.164	80.126987
651.378	80.089001
651.592	80.060995
651.805	80.015245
652.019	79.798542
652.233	79.362911
652.447	78.915242
652.660	78.593621
652.874	78.379064
653.088	78.511623
653.301	78.731502
653.515	78.987779
653.728	79.157353
653.942	79.266726
654.156	79.502318
654.369	79.684121
654.583	79.900666
654.796	80.196311
655.010	80.423952
655.223	80.405776
655.437	80.367977
655.650	80.395905
655.863	80.361176
656.077	80.248013
656.290	80.133798
656.504	80.079476
656.717	80.149931
656.930	80.296880
657.144	80.285139
657.357	80.132315
657.570	80.168458
657.783	80.412294
657.997	80.767178
658.210	80.950449
658.423	81.135545
658.636	81.439929
658.849	81.477357
659.063	81.387875
659.276	81.372663
659.489	81.580308
659.702	81.771109
659.915	81.914887
660.128	81.959917
660.341	81.910070
660.554	82.071854
660.767	82.179950
660.980	81.985229
661.193	81.874423
661.406	81.860004
661.619	81.729698
661.832	81.728643
662.045	81.935700
662.258	82.016200
662.471	81.674327
662.684	81.408137
662.897	81.170340
663.110	80.980831
663.322	81.136086
663.535	81.435631
663.748	81.663537
663.961	81.848153
664.174	81.650518
664.386	81.490008
664.599	81.792771
664.812	82.505415
665.024	83.146379
665.237	83.542875
665.450	83.884157
665.662	84.103662
665.875	84.151107
666.088	84.236131
666.300	84.307498
666.513	84.503121
666.725	84.382849
666.938	84.065108
667.150	83.661351
667.363	83.154749
667.575	82.927076
667.788	82.991859
668.000	83.119040
668.213	83.031293
668.425	82.966056
668.638	83.017460
668.850	83.076111
669.062	83.176867
669.275	83.409671
669.487	83.794762
669.699	84.144761
669.912	84.371985
670.124	84.372247
670.336	84.157759
670.548	84.368146
670.761	84.626886
670.973	84.574297
671.185	84.278488
671.397	83.956534
671.609	83.567314
671.822	83.265425
672.034	83.136499
672.246	83.008760
672.458	82.802573
672.670	82.645458
672.882	82.478789
673.094	82.306041
673.306	82.301268
673.518	82.618877
673.730	83.143075
673.942	83.524205
674.154	83.648421
674.366	83.500732
674.578	83.277368
674.790	83.209070
675.002	83.031589
675.214	82.591888
675.425	82.259644
675.637	82.149553
675.849	82.245578
676.061	82.323946
676.273	82.224924
676.484	82.491693
676.696	83.228819
676.908	84.164598
677.120	84.834569
677.331	85.214342
677.543	85.567979
677.755	85.634531
677.966	85.559167
678.178	85.338271
678.389	85.230767
678.601	85.286215
678.813	84.891227
679.024	84.070298
679.236	83.101883
679.447	82.435421
679.659	82.206450
679.870	82.089155
680.082	81.910938
680.293	81.658671
680.505	81.325400
680.716	81.081431
680.927	81.030298
681.139	81.323344
681.350	81.773871
681.562	81.985678
681.773	81.986368
681.984	81.975367
682.196	82.077466
682.407	82.625636
682.618	83.223262
682.829	83.485060
683.041	83.398734
683.252	83.290644
683.463	83.087652
683.674	82.840875
683.885	82.773454
684.097	82.710025
684.308	82.688850
684.519	82.776063
684.730	82.725357
684.941	82.844192
685.152	83.533279
685.363	84.285393
685.574	84.376865
685.785	84.133857
685.996	83.894146
686.207	83.941852
686.418	84.329345
686.629	84.822121
686.840	85.056010
687.051	85.185409
687.262	85.089220
687.473	84.577900
687.684	83.986817
687.894	83.967361
688.105	84.148869
688.316	84.333873
688.527	84.180016
688.738	83.591907
688.948	82.855190
689.159	82.255098
689.370	81.658597
689.580	81.411735
689.791	81.520830
690.002	81.658342
690.212	81.655650
690.423	81.696515
690.634	81.732644
690.844	81.945941
691.055	82.295033
691.266	82.508826
691.476	82.675992
691.687	82.838501
691.897	82.755410
692.108	82.403592
692.318	82.193659
692.529	81.959912
692.739	81.580981
692.949	81.320046
693.160	81.132674
693.370	81.255098
693.581	81.605846
693.791	81.808637
694.001	81.957139
694.212	82.168654
694.422	82.492433
694.632	82.773744
694.843	83.151072
695.053	83.730362
695.263	84.052249
695.473	84.364189
695.683	84.730357
695.894	84.893007
696.104	85.034264
696.314	85.256597
696.524	85.507816
696.734	85.809363
696.944	85.974884
697.154	85.876097
697.365	85.506129
697.575	85.370655
697.785	85.096952
697.995	84.587200
698.205	84.486004
698.415	84.980826
698.625	85.173215
698.834	84.786006
699.044	84.228860
699.254	83.852564
699.464	83.730791
699.674	83.720414
699.884	83.729863
700.094	83.961172
700.304	84.232812
700.513	83.913584
700.723	82.940940
700.933	82.340042
701.143	82.279823
701.353	82.326402
701.562	82.447457
701.772	82.531636
701.982	82.303931
702.191	81.869103
702.401	81.372182
702.611	80.827088
702.820	80.806998
703.030	81.027245
703.239	81.213191
703.449	81.441936
703.659	81.573682
703.868	81.594431
704.078	81.814524
704.287	82.288035
704.497	82.703957
704.706	82.965312
704.916	83.031734
705.125	82.844594
705.334	82.807148
705.544	82.641694
705.753	82.060404
705.962	81.547483
706.172	81.155660
706.381	80.500372
706.590	79.903164
706.800	79.506638
707.009	79.209231
707.218	79.118583
707.428	79.036533
707.637	78.973185
707.846	78.961112
708.055	79.157874
708.264	79.402002
708.474	79.441206
708.683	79.512508
708.892	79.512547
709.101	79.492417
709.310	79.557226
709.519	79.598334
709.728	79.643354
709.937	79.655108
710.146	79.711033
710.355	79.570087
710.564	79.428961
710.773	79.694533
710.982	80.566748
711.191	81.729063
711.400	82.653489
711.609	83.077686
711.818	83.224393
712.027	83.371120
712.235	83.420024
712.444	83.457553
712.653	83.504470
712.862	83.330494
713.071	82.944081
713.279	82.147276
713.488	81.209516
713.697	80.371641
713.906	79.682749
714.114	79.318404
714.323	78.975479
714.532	78.579278
714.740	78.004804
714.949	77.480061
715.157	77.038649
715.366	76.732706
715.575	76.568031
715.783	76.650691
715.992	77.005709
716.200	77.374571
716.409	77.556973
716.617	77.959736
716.826	78.368853
717.034	78.675722
717.242	78.960892
717.451	79.442193
717.659	79.894299
717.868	80.052673
718.076	79.829158
718.284	79.335785
718.493	78.928287
718.701	78.516745
718.909	77.961046
719.118	77.517685
719.326	77.248248
719.534	77.141135
719.742	76.953576
719.951	76.508473
720.159	76.307958
720.367	76.150739
720.575	76.102678
720.783	76.248440
720.991	76.663353
721.199	77.113691
721.408	77.174755
721.616	77.094654
721.824	77.325156
722.032	77.739612
722.240	78.228188
722.448	78.505271
722.656	78.854596
722.864	79.114806
723.072	79.106218
723.280	78.626723
723.487	77.850452
723.695	77.324935
723.903	77.102262
724.111	76.728706
724.319	76.238193
724.527	75.859834
724.735	75.623627
724.942	75.336921
725.150	74.967388
725.358	74.776416
725.566	75.041093
725.773	75.475741
725.981	75.858681
726.189	76.081379
726.396	76.267765
726.604	76.363273
726.812	76.269298
727.019	76.033441
727.227	75.869047
727.435	75.894596
727.642	75.825297
727.850	75.547381
728.057	75.291243
728.265	74.990334
728.472	74.693167
728.680	74.577827
728.887	74.417431
729.095	74.118662
729.302	73.864550
729.509	73.644645
729.717	73.550580
729.924	73.746176
730.132	74.051800
730.339	74.027235
730.546	73.961562
730.753	74.104934
730.961	74.029060
731.168	73.962910
731.375	74.201896
731.583	74.355449
731.790	74.316315
731.997	74.310411
732.204	74.088332
732.411	73.627157
732.618	73.481166
732.826	73.450260
733.033	73.204405
733.240	73.063696
733.447	73.032326
733.654	72.916290
733.861	72.751504
734.068	72.368141
734.275	71.732663
734.482	71.149747
734.689	70.778036
734.896	70.743266
735.103	71.117189
735.310	71.501849
735.517	71.550211
735.724	71.405281
735.931	71.187109
736.137	71.083578
736.344	71.442341
736.551	71.981814
736.758	72.133077
736.965	72.154323
737.171	71.650056
737.378	70.666768
737.585	69.790913
737.792	69.263892
737.998	69.042997
738.205	69.015529
738.412	68.844462
738.618	68.328374
738.825	67.402296
739.032	66.610443
739.238	65.918036
739.445	65.353437
739.651	64.918980
739.858	64.676771
740.064	64.550600
740.271	64.061944
740.477	63.105556
740.684	62.241270
740.890	61.703953
741.097	61.506794
741.303	61.519583
741.510	61.534271
741.716	61.560734
741.922	61.676034
742.129	61.707038
742.335	61.573252
742.541	61.542966
742.748	61.842565
742.954	62.264372
743.160	62.536152
743.366	62.759653
743.573	62.865926
743.779	62.807220
743.985	62.702560
744.191	62.588386
744.397	62.635214
744.604	62.667696
744.810	62.490442
745.016	62.176312
745.222	61.901921
745.428	61.579630
745.634	61.175474
745.840	60.721839
746.046	60.215958
746.252	59.842958
746.458	59.416211
746.664	58.797088
746.870	58.065643
747.076	57.550150
747.282	57.380441
747.488	57.120367
747.694	56.806631
747.900	56.545854
748.105	56.417463
748.311	56.431235
748.517	56.320493
748.723	56.218789
748.929	56.013504
749.134	56.053838
749.340	56.124283
749.546	55.959352
749.752	55.791570
749.957	55.728669
750.163	55.683222
750.369	55.524210
750.574	55.258124
750.780	54.869725
750.985	54.535073
751.191	54.346138
751.397	54.045689
751.602	53.643335
751.808	53.200106
752.013	52.606538
752.219	51.963169
752.424	51.395383
752.630	50.945539
752.835	50.434286
753.041	49.916936
753.246	49.349026
753.451	48.848446
753.657	48.337324
753.862	47.984645
754.067	47.600264
754.273	47.395994
754.478	47.279748
754.683	47.197623
754.889	46.925171
755.094	46.645379
755.299	46.636974
755.504	46.563370
755.710	46.248995
755.915	45.916673
756.120	45.634494
756.325	45.393330
756.530	45.070981
756.735	44.691132
756.940	44.180044
757.146	43.827025
757.351	43.720395
757.556	43.518032
757.761	43.344309
757.966	43.282509
758.171	42.987654
758.376	42.387235
758.581	41.796600
758.786	41.381342
758.990	40.920657
759.195	40.578439
759.400	40.145315
759.605	39.371484
759.810	38.615895
760.015	37.932519
760.220	37.160768
760.424	36.679502
760.629	36.421614
760.834	36.252045
761.039	36.027107
761.244	35.900863
761.448	35.652179
761.653	35.611140
761.858	35.637660
762.062	35.527154
762.267	35.337629
762.472	35.079821
762.676	34.722386
762.881	34.268615
763.085	33.702477
763.290	33.145931
763.494	32.477131
763.699	31.944518
763.903	31.264191
764.108	30.726766
764.312	30.155772
764.517	29.717419
764.721	29.451994
764.926	29.215922
765.130	28.989016
765.335	28.742832
765.539	28.386937
765.743	28.090101
765.948	27.859830
766.152	27.602854
766.356	27.296312
766.560	27.126220
766.765	26.771597
766.969	26.331392
767.173	25.849440
767.377	25.551751
767.582	25.355632
767.786	25.115041
767.990	24.916129
768.194	24.509352
768.398	24.196677
768.602	23.881321
768.806	23.578346
769.010	23.340034
769.215	23.044962
769.419	22.797994
769.623	22.480760
769.827	22.134415
770.031	21.824881
770.234	21.521070
770.438	21.222472
770.642	20.825198
770.846	20.524643
771.050	20.266870
771.254	20.074922
771.458	19.928119
771.662	19.742090
771.866	19.542062
772.069	19.410025
772.273	19.260499
772.477	18.991242
772.681	18.783400
772.885	18.660440
773.088	18.430874
773.292	18.028490
773.496	17.657848
773.699	17.394159
773.903	17.074235
774.107	16.680845
774.310	16.301372
774.514	15.996116
774.717	15.756079
774.921	15.497977
775.124	15.312087
775.328	15.184708
775.531	15.194333
775.735	15.167458
775.938	15.205115
776.142	15.216109
776.345	15.229085
776.549	15.171537
776.752	15.065095
776.956	15.041755
777.159	15.038444
777.362	14.900172
777.566	14.931507
777.769	14.864537
777.972	14.737575
778.176	14.510796
778.379	14.405662
778.582	14.291071
778.785	14.385138
778.989	14.399025
779.192	14.307094
779.395	14.278522
779.598	14.239368
779.801	14.138897
780.004	14.101731
780.207	14.025467
780.411	13.876303
780.614	13.778846
780.817	13.835643
781.020	13.673941
781.223	13.734522
781.426	13.859613
781.629	13.886903
781.832	13.922678
782.035	13.912416
782.238	13.910769
782.440	14.083679
782.643	14.274769
782.846	14.300239
783.049	14.263691
783.252	14.271440
783.455	14.278909
783.658	14.233402
783.860	14.240335
784.063	14.394454
784.266	14.562962
784.469	14.791576
784.671	14.864436
784.874	14.966502
785.077	15.251450
785.279	15.481503
785.482	15.801755
785.685	15.904803
785.887	16.044207
786.090	16.239466
786.293	16.344825
786.495	16.372623
786.698	16.461147
786.900	16.665479
787.103	16.907829
787.305	17.103904
787.508	17.341601
787.710	17.527220
787.913	17.775404
788.115	18.127603
788.317	18.521698
788.520	18.883522
788.722	19.352097
788.924	19.664102
789.127	19.858252
789.329	20.063052
789.531	20.248817
789.734	20.450705
789.936	20.557121
790.138	20.673741
790.340	20.723120
790.543	20.762835
790.745	20.830128
790.947	20.964688
791.149	21.192775
791.351	21.419526
791.553	21.633118
791.756	21.865415
791.958	22.185072
792.160	22.714876
792.362	23.277791
792.564	23.716830
792.766	24.065070
792.968	24.443053
793.170	24.602349
793.372	24.628436
793.574	24.772224
793.776	24.938948
793.978	25.127681
794.180	25.264154
794.381	25.336303
794.583	25.397876
794.785	25.598594
794.987	25.849756
795.189	26.107195
795.391	26.506708
795.592	26.968899
795.794	27.359710
795.996	27.829100
796.198	28.347677
796.399	28.735878
796.601	28.982830
796.803	29.231346
797.004	29.442839
797.206	29.670033
797.407	29.848350
797.609	30.017697
797.811	30.091964
798.012	30.173096
798.214	30.013054
798.415	29.842638
798.617	29.986677
798.818	30.243659
799.020	30.471589
799.221	30.791454
799.423	30.978556
799.624	31.033772
799.826	31.136057
800.027	31.529902
800.228	31.991351
800.430	32.665646
800.631	33.312147
800.832	33.635339
801.034	33.890017
801.235	34.274649
801.436	34.592724
801.637	35.297954
801.839	36.332204
802.040	37.194946
802.241	37.893872
802.442	38.376560
802.643	38.667320
802.844	38.818267
803.046	39.070387
803.247	39.236966
803.448	39.356339
803.649	39.631505
803.850	39.600265
804.051	39.341778
804.252	39.252570
804.453	39.131535
804.654	39.138470
804.855	39.246644
805.056	39.509347
805.257	39.817363
805.458	40.161705
805.659	40.320331
805.859	40.253643
806.060	40.180840
806.261	40.272863
806.462	40.530214
806.663	40.943670
806.864	41.414497
807.064	41.885254
807.265	42.273968
807.466	42.746112
807.667	43.402708
807.867	44.120662
808.068	44.744683
808.269	45.298778
808.469	45.709923
808.670	45.952539
808.870	46.171206
809.071	46.443628
809.272	46.694173
809.472	46.900263
809.673	46.851809
809.873	46.621923
810.074	46.559673
810.274	46.921075
810.475	47.365412
810.675	47.792429
810.876	48.236411
811.076	48.527313
811.276	48.708277
811.477	48.919018
811.677	49.285851
811.878	49.728355
812.078	50.235339
812.278	50.680812
812.479	50.924807
812.679	51.161997
812.879	51.399089
813.079	51.517029
813.280	51.591061
813.480	51.583138
813.680	51.333381
813.880	50.985108
814.080	50.755401
814.280	50.747702
814.480	50.932003
814.681	51.035428
814.881	51.096958
815.081	51.194624
815.281	51.473932
815.481	51.864051
815.681	52.497010
815.881	53.539056
816.081	54.509088
816.281	55.184347
816.481	55.662346
816.681	55.885920
816.880	56.204393
817.080	56.476086
817.280	56.580386
817.480	56.533770
817.680	56.364415
817.880	56.148323
818.080	55.701525
818.279	55.414971
818.479	55.358099
818.679	55.307385
818.879	55.334958
819.078	55.205384
819.278	55.248988
819.478	55.415381
819.677	55.702825
819.877	56.154635
820.077	56.494750
820.276	56.950124
820.476	57.290315
820.675	57.517661
820.875	57.709900
821.074	57.900107
821.274	58.243939
821.473	58.613608
821.673	59.010686
821.872	59.402514
822.072	59.938112
822.271	60.547216
822.471	60.990635
822.670	61.287826
822.869	61.759271
823.069	62.419808
823.268	63.079713
823.467	63.632981
823.667	63.780460
823.866	63.736715
824.065	63.751664
824.265	63.433492
824.464	62.841953
824.663	62.305535
824.862	62.059148
825.061	61.840005
825.261	61.153898
825.460	60.341477
825.659	59.564957
825.858	59.274707
826.057	59.739677
826.256	60.193605
826.455	60.675409
826.654	61.424749
826.853	62.139135
827.052	62.388881
827.251	62.581702
