Date	2025年07月03日木曜日 09時49分46秒
Spectrometers	SR401765
ダーク	使用
リファレンス	使用
積分時間[msec]	300
平均回数	1
ｽﾑｰｼﾞﾝｸﾞ	5
Electrical Dark	USE
ピクセル数	3648
計測モード	反射率
保存開始波長[nm]	598.495
保存終了波長[nm]	1274.802
保存ﾋﾟｯﾁ波長[nm]	全波長

>>>>>>>>>> Data Start <<<<<<<<<<<<
598.495	-81.724324
598.713	-81.724324
598.931	-81.724324
599.148	-81.724324
599.366	0.000000
599.584	0.000000
599.802	0.000000
600.020	0.000000
600.238	0.000000
600.455	-302.367375
600.673	-682.791257
600.891	28.431811
601.109	40.280411
601.326	41.454663
601.544	41.888967
601.762	41.773292
601.979	41.676455
602.197	41.958692
602.415	41.904799
602.632	41.864784
602.850	41.874182
603.067	41.852576
603.285	42.000939
603.502	42.104268
603.720	42.116150
603.938	42.250494
604.155	42.458661
604.372	42.643494
604.590	42.771968
604.807	42.926457
605.025	43.124388
605.242	43.513386
605.460	43.689412
605.677	43.716539
605.894	43.771107
606.112	43.906349
606.329	43.918523
606.546	44.008497
606.764	44.400270
606.981	44.614344
607.198	44.750082
607.415	44.777021
607.633	44.753543
607.850	45.079950
608.067	45.304485
608.284	45.350060
608.501	45.489126
608.718	45.631936
608.935	45.810253
609.153	45.778867
609.370	45.867332
609.587	46.071233
609.804	46.376701
610.021	46.613570
610.238	46.609216
610.455	46.723159
610.672	47.053500
610.889	47.451248
611.106	47.635037
611.323	47.763715
611.540	47.887678
611.756	48.078095
611.973	48.188981
612.190	48.302986
612.407	48.512766
612.624	48.781427
612.841	48.958252
613.057	48.992536
613.274	48.927904
613.491	49.022631
613.708	48.975790
613.925	49.060332
614.141	49.086186
614.358	49.282008
614.575	49.526303
614.791	49.691786
615.008	49.800484
615.225	50.047449
615.441	50.185165
615.658	50.202557
615.874	50.222866
616.091	50.449920
616.307	50.491751
616.524	50.592062
616.740	50.756794
616.957	50.814882
617.173	50.803777
617.390	50.916226
617.606	51.116322
617.823	51.456265
618.039	51.646127
618.256	51.984320
618.472	52.311315
618.688	52.801568
618.905	53.405371
619.121	53.702739
619.337	53.964346
619.554	54.376649
619.770	54.634957
619.986	54.655984
620.202	54.726739
620.419	54.999944
620.635	55.024207
620.851	55.209767
621.067	55.363689
621.283	55.253468
621.499	55.318876
621.716	55.709077
621.932	55.773811
622.148	55.816572
622.364	56.175744
622.580	56.563878
622.796	56.967754
623.012	57.327894
623.228	57.385527
623.444	57.546069
623.660	57.857034
623.876	58.171027
624.092	58.095703
624.308	58.380798
624.524	58.904998
624.740	59.155398
624.955	59.219684
625.171	59.182404
625.387	59.514670
625.603	60.002480
625.819	60.268331
626.034	60.377207
626.250	60.308293
626.466	60.581527
626.682	60.916319
626.897	60.996700
627.113	61.011459
627.329	60.992871
627.544	60.961628
627.760	61.043129
627.976	61.144922
628.191	61.253003
628.407	61.244706
628.623	61.411422
628.838	61.447669
629.054	61.415958
629.269	61.516792
629.485	61.647804
629.700	61.957296
629.916	62.338834
630.131	62.514934
630.347	62.624367
630.562	62.766012
630.777	63.100482
630.993	63.452088
631.208	63.813787
631.424	63.936378
631.639	63.929717
631.854	64.133040
632.070	64.342037
632.285	64.418820
632.500	64.423073
632.715	64.467436
632.931	64.642574
633.146	65.021940
633.361	65.435723
633.576	65.679437
633.791	66.006579
634.007	66.401330
634.222	66.586812
634.437	66.704793
634.652	66.900361
634.867	67.182334
635.082	67.356862
635.297	67.495795
635.512	67.305387
635.727	66.916710
635.942	66.629432
636.157	66.563147
636.372	66.672317
636.587	66.845465
636.802	66.906240
637.017	67.034198
637.232	67.064911
637.447	67.075275
637.662	67.033295
637.876	67.349991
638.091	67.737758
638.306	67.934460
638.521	67.981882
638.736	67.942998
638.951	67.868802
639.165	67.975973
639.380	67.920428
639.595	67.709607
639.809	67.633295
640.024	67.774269
640.239	67.764816
640.453	67.838512
640.668	68.102030
640.883	68.281544
641.097	68.526937
641.312	68.906952
641.526	69.257020
641.741	69.810187
641.955	70.651744
642.170	71.221343
642.384	71.482831
642.599	71.541595
642.813	71.554808
643.028	71.660161
643.242	71.820638
643.457	71.872498
643.671	72.039367
643.885	72.177363
644.100	72.066694
644.314	71.784918
644.528	71.855063
644.743	72.115181
644.957	72.360748
645.171	72.571479
645.386	72.590572
645.600	72.714781
645.814	72.824675
646.028	72.760886
646.242	72.510276
646.457	72.405927
646.671	72.285919
646.885	72.118297
647.099	72.009469
647.313	72.192448
647.527	72.480736
647.741	72.816342
647.955	72.964746
648.169	72.963260
648.383	72.942339
648.597	73.234233
648.811	73.697679
649.025	74.289073
649.239	74.570061
649.453	74.527754
649.667	74.397979
649.881	74.129758
650.095	73.908907
650.309	73.916353
650.523	74.003657
650.737	73.909335
650.950	73.756260
651.164	73.565630
651.378	73.458188
651.592	73.464923
651.805	73.382705
652.019	73.045129
652.233	72.869789
652.447	72.830225
652.660	72.705782
652.874	72.769690
653.088	73.008921
653.301	73.200055
653.515	73.406308
653.728	73.295515
653.942	73.093827
654.156	73.249655
654.369	73.680154
654.583	73.938581
654.796	74.099411
655.010	74.344571
655.223	74.471096
655.437	74.627976
655.650	74.767225
655.863	74.829357
656.077	75.001245
656.290	75.361558
656.504	75.568451
656.717	75.731849
656.930	75.980833
657.144	76.160506
657.357	76.154265
657.570	76.056808
657.783	75.849138
657.997	75.689847
658.210	75.686159
658.423	75.810491
658.636	75.937531
658.849	76.098715
659.063	76.138335
659.276	76.330929
659.489	76.769166
659.702	77.075999
659.915	77.182048
660.128	77.213726
660.341	77.272790
660.554	77.295572
660.767	77.198316
660.980	77.124725
661.193	77.118661
661.406	77.129767
661.619	76.922573
661.832	76.693233
662.045	76.860432
662.258	77.142424
662.471	77.481036
662.684	77.804818
662.897	77.917413
663.110	77.971988
663.322	78.104495
663.535	78.237497
663.748	78.266561
663.961	78.538921
664.174	78.739489
664.386	78.577273
664.599	78.454474
664.812	78.385212
665.024	78.509562
665.237	78.578254
665.450	78.585013
665.662	78.623384
665.875	78.583813
666.088	78.815814
666.300	78.948348
666.513	78.894603
666.725	78.826989
666.938	79.007305
667.150	79.376100
667.363	79.419679
667.575	79.575116
667.788	79.904734
668.000	80.083482
668.213	80.127945
668.425	80.107482
668.638	79.984936
668.850	79.873665
669.062	79.891163
669.275	79.851555
669.487	79.612029
669.699	79.358509
669.912	79.261080
670.124	79.202545
670.336	79.249458
670.548	79.534429
670.761	79.749886
670.973	80.061681
671.185	80.345453
671.397	80.439399
671.609	80.493491
671.822	80.772727
672.034	81.242439
672.246	81.632449
672.458	81.773140
672.670	81.595680
672.882	81.468278
673.094	81.362528
673.306	81.203562
673.518	81.209755
673.730	81.325411
673.942	81.271606
674.154	81.103626
674.366	80.772102
674.578	80.414613
674.790	80.297734
675.002	80.375045
675.214	80.279710
675.425	80.149253
675.637	79.975265
675.849	79.797970
676.061	79.677270
676.273	79.543955
676.484	79.589828
676.696	79.839961
676.908	80.076831
677.120	80.257071
677.331	80.441632
677.543	80.626261
677.755	80.730247
677.966	80.805150
678.178	81.001821
678.389	81.451679
678.601	81.912419
678.813	81.900017
679.024	81.698052
679.236	81.576978
679.447	81.573941
679.659	81.865911
679.870	82.084667
680.082	82.043869
680.293	81.817353
680.505	81.470078
680.716	81.155850
680.927	81.113538
681.139	81.362626
681.350	81.669540
681.562	81.872005
681.773	81.860206
681.984	81.572012
682.196	81.181961
682.407	81.276946
682.618	81.853194
682.829	81.998384
683.041	81.858093
683.252	81.870602
683.463	82.006765
683.674	82.062705
683.885	82.117684
684.097	82.214278
684.308	82.358782
684.519	82.548970
684.730	82.502403
684.941	82.429253
685.152	83.012313
685.363	83.683805
685.574	83.742075
685.785	83.270118
685.996	82.770321
686.207	82.588701
686.418	82.822457
686.629	83.084610
686.840	83.249285
687.051	83.372690
687.262	83.117415
687.473	82.654007
687.684	82.195788
687.894	82.023619
688.105	82.295972
688.316	82.660598
688.527	82.532253
688.738	82.091339
688.948	81.480962
689.159	80.996272
689.370	80.596678
689.580	80.646804
689.791	80.803864
690.002	80.834380
690.212	80.902334
690.423	80.756258
690.634	80.616839
690.844	80.978625
691.055	81.314646
691.266	81.530113
691.476	81.740324
691.687	81.896680
691.897	81.812939
692.108	81.565457
692.318	81.374032
692.529	81.197245
692.739	81.121021
692.949	81.123672
693.160	81.073645
693.370	81.140811
693.581	81.296540
693.791	81.470597
694.001	81.880834
694.212	82.653801
694.422	83.497157
694.632	84.220529
694.843	84.853004
695.053	85.487315
695.263	85.838993
695.473	85.916801
695.683	85.896934
695.894	85.873620
696.104	85.826873
696.314	85.652497
696.524	84.943676
696.734	84.236100
696.944	83.808733
697.154	83.367517
697.365	82.884826
697.575	82.624826
697.785	82.364107
697.995	82.052342
698.205	81.860906
698.415	81.892858
698.625	81.883593
698.834	81.832187
699.044	81.747657
699.254	81.815188
699.464	81.886829
699.674	81.623361
699.884	81.424912
700.094	81.516012
700.304	81.822354
700.513	81.858380
700.723	81.550209
700.933	81.399805
701.143	81.522972
701.353	81.702727
701.562	81.748524
701.772	81.708080
701.982	81.698044
702.191	81.573488
702.401	81.265678
702.611	80.809059
702.820	80.823608
703.030	81.097113
703.239	81.305571
703.449	81.313892
703.659	80.880794
703.868	80.370240
704.078	80.439775
704.287	81.060031
704.497	81.691551
704.706	82.046894
704.916	82.115189
705.125	81.987582
705.334	81.943810
705.544	81.600910
705.753	81.030290
705.962	80.879473
706.172	80.895524
706.381	80.646331
706.590	80.300065
706.800	80.031428
707.009	79.989308
707.218	80.138865
707.428	80.131071
707.637	80.079546
707.846	80.191925
708.055	80.571412
708.264	81.101436
708.474	81.547155
708.683	81.734582
708.892	81.809368
709.101	81.893297
709.310	81.962137
709.519	82.051870
709.728	82.158765
709.937	82.168113
710.146	82.187880
710.355	82.156899
710.564	81.976006
710.773	82.008310
710.982	82.363762
711.191	82.721252
711.400	83.165996
711.609	83.627105
711.818	83.717513
712.027	83.630087
712.235	83.647208
712.444	83.901102
712.653	83.914778
712.862	83.608253
713.071	83.141154
713.279	82.659337
713.488	82.474300
713.697	82.242003
713.906	81.854283
714.114	81.908505
714.323	82.179214
714.532	82.274089
714.740	82.059973
714.949	81.914868
715.157	81.819482
715.366	81.698775
715.575	81.560098
715.783	81.428131
715.992	81.247135
716.200	80.945646
716.409	80.610817
716.617	80.519285
716.826	80.719736
717.034	80.901877
717.242	81.120406
717.451	81.529576
717.659	81.771502
717.868	81.913810
718.076	81.718464
718.284	81.361887
718.493	81.187509
718.701	81.048126
718.909	80.813609
719.118	80.239066
719.326	79.615896
719.534	79.368278
719.742	79.325730
719.951	79.285679
720.159	79.378249
720.367	79.671764
720.575	79.933926
720.783	80.146355
720.991	80.495390
721.199	80.758167
721.408	80.920865
721.616	81.335936
721.824	81.790800
722.032	82.032251
722.240	82.267274
722.448	82.282866
722.656	82.038509
722.864	81.975732
723.072	82.105969
723.280	81.827194
723.487	81.359020
723.695	80.990952
723.903	80.560844
724.111	80.038322
724.319	79.620291
724.527	79.167153
724.735	78.672834
724.942	78.466860
725.150	78.372385
725.358	78.280727
725.566	78.571505
725.773	79.062237
725.981	79.393392
726.189	79.424583
726.396	79.399842
726.604	79.465712
726.812	79.598544
727.019	79.870067
727.227	80.034540
727.435	80.133470
727.642	80.040866
727.850	79.693539
728.057	79.142016
728.265	78.875268
728.472	79.032685
728.680	79.185819
728.887	79.018772
729.095	78.764354
729.302	78.726690
729.509	78.622997
729.717	78.220764
729.924	77.981723
730.132	77.973264
730.339	78.047058
730.546	78.202535
730.753	78.349932
730.961	78.443783
731.168	78.636348
731.375	78.901159
731.583	78.643312
731.790	78.224588
731.997	78.397008
732.204	78.614800
732.411	78.430827
732.618	78.153347
732.826	78.009104
733.033	77.896731
733.240	77.792382
733.447	77.602989
733.654	77.305863
733.861	77.332807
734.068	77.396468
734.275	77.072526
734.482	76.732380
734.689	76.837488
734.896	77.283174
735.103	77.521266
735.310	77.756511
735.517	77.904261
735.724	78.120671
735.931	78.346475
736.137	78.396967
736.344	78.512934
736.551	78.739745
736.758	78.768411
736.965	78.407199
737.171	77.629786
737.378	76.866139
737.585	76.080368
737.792	75.595842
737.998	75.338506
738.205	75.329100
738.412	75.072046
738.618	74.685027
738.825	74.214684
739.032	73.905594
739.238	73.864904
739.445	73.848465
739.651	73.758447
739.858	73.911058
740.064	74.111558
740.271	74.048377
740.477	73.770962
740.684	73.755468
740.890	73.795682
741.097	73.840487
741.303	74.038883
741.510	74.202776
741.716	74.565815
741.922	75.093400
742.129	75.135632
742.335	74.692424
742.541	74.361554
742.748	74.093633
742.954	74.021005
743.160	74.166281
743.366	74.425386
743.573	74.483109
743.779	74.355713
743.985	74.102425
744.191	73.770595
744.397	73.748725
744.604	74.289145
744.810	74.702519
745.016	74.955861
745.222	75.216569
745.428	75.347359
745.634	75.255800
745.840	75.013160
746.046	74.551019
746.252	74.084886
746.458	73.774679
746.664	73.538606
746.870	73.119554
747.076	72.882665
747.282	72.946366
747.488	72.824787
747.694	72.488118
747.900	72.056166
748.105	71.893906
748.311	72.200450
748.517	72.627402
748.723	73.006339
748.929	73.277504
749.134	73.577277
749.340	73.784114
749.546	73.818992
749.752	73.899575
749.957	74.178750
750.163	74.528972
750.369	74.563995
750.574	74.411455
750.780	74.208676
750.985	74.076706
751.191	73.836277
751.397	73.583720
751.602	73.194062
751.808	72.681039
752.013	72.061839
752.219	71.489536
752.424	71.463201
752.630	71.828371
752.835	72.091736
753.041	72.318209
753.246	72.264776
753.451	72.213273
753.657	71.918853
753.862	71.795494
754.067	71.995547
754.273	72.409140
754.478	72.701035
754.683	72.397804
754.889	71.581823
755.094	70.617889
755.299	70.081942
755.504	69.632476
755.710	69.254353
755.915	69.188262
756.120	69.258200
756.325	69.036377
756.530	68.745652
756.735	68.397359
756.940	68.090715
757.146	68.129839
757.351	68.387998
757.556	68.366227
757.761	68.465239
757.966	68.537526
758.171	68.358267
758.376	67.887236
758.581	67.388945
758.786	66.739316
758.990	66.346063
759.195	66.279122
759.400	66.009011
759.605	65.601624
759.810	65.361687
760.015	65.268303
760.220	64.937355
760.424	64.635835
760.629	64.385896
760.834	64.313638
761.039	64.513705
761.244	64.724220
761.448	64.739101
761.653	64.962270
761.858	65.418468
762.062	65.661484
762.267	65.530544
762.472	65.452541
762.676	65.274174
762.881	65.030130
763.085	64.807037
763.290	64.580857
763.494	64.034717
763.699	63.438553
763.903	62.725794
764.108	61.981513
764.312	61.260208
764.517	60.757458
764.721	60.582114
764.926	60.570692
765.130	60.501099
765.335	60.257056
765.539	59.883756
765.743	59.669882
765.948	59.715462
766.152	59.796866
766.356	59.663345
766.560	59.663463
766.765	59.657238
766.969	59.538326
767.173	59.335711
767.377	59.291645
767.582	59.071641
767.786	59.007060
767.990	59.258128
768.194	59.298943
768.398	59.282145
768.602	59.460123
768.806	59.589672
769.010	59.663167
769.215	59.647944
769.419	59.596863
769.623	59.711579
769.827	59.966725
770.031	59.953575
770.234	59.671709
770.438	59.430164
770.642	59.044991
770.846	58.487961
771.050	57.951434
771.254	57.411631
771.458	56.982981
771.662	56.656808
771.866	56.260005
772.069	55.839642
772.273	55.343956
772.477	54.648525
772.681	53.891689
772.885	53.362965
773.088	52.897687
773.292	52.377168
773.496	51.970589
773.699	51.576934
773.903	51.250113
774.107	50.791401
774.310	50.402817
774.514	50.098796
774.717	50.040555
774.921	50.116814
775.124	50.172462
775.328	50.348702
775.531	50.501419
775.735	50.629312
775.938	50.702809
776.142	50.505701
776.345	50.249651
776.549	50.237945
776.752	50.405670
776.956	50.519156
777.159	50.344078
777.362	49.829269
777.566	49.446740
777.769	49.035681
777.972	48.488373
778.176	48.052252
778.379	47.763436
778.582	47.467555
778.785	47.125986
778.989	46.750655
779.192	46.198661
779.395	45.828050
779.598	45.604515
779.801	45.118364
780.004	44.501307
780.207	43.999723
780.411	43.472077
780.614	42.996868
780.817	42.652512
781.020	42.198233
781.223	41.817889
781.426	41.599223
781.629	41.290480
781.832	41.146098
782.035	41.015250
782.238	40.977531
782.440	40.829161
782.643	40.528058
782.846	40.231356
783.049	39.979150
783.252	39.688472
783.455	39.237896
783.658	38.748740
783.860	38.431475
784.063	38.154916
784.266	37.865825
784.469	37.633625
784.671	37.435430
784.874	37.260702
785.077	37.088107
785.279	36.767362
785.482	36.496570
785.685	36.229392
785.887	35.817407
786.090	35.301480
786.293	34.790426
786.495	34.409989
786.698	33.983406
786.900	33.508720
787.103	33.097967
787.305	32.657990
787.508	32.302098
787.710	32.038721
787.913	31.749778
788.115	31.576427
788.317	31.450542
788.520	31.192504
788.722	30.755134
788.924	30.361135
789.127	30.032971
789.329	29.724545
789.531	29.361511
789.734	28.974572
789.936	28.552974
790.138	28.112721
790.340	27.720569
790.543	27.215841
790.745	26.866034
790.947	26.513435
791.149	26.216662
791.351	25.967502
791.553	25.589328
791.756	25.308065
791.958	25.158664
792.160	25.005204
792.362	24.858662
792.564	24.655336
792.766	24.500545
792.968	24.301174
793.170	24.118249
793.372	23.803505
793.574	23.373810
793.776	22.971395
793.978	22.598700
794.180	22.233657
794.381	21.788920
794.583	21.292924
794.785	20.865562
794.987	20.465409
795.189	20.159758
795.391	19.881458
795.592	19.626625
795.794	19.287804
795.996	19.083504
796.198	18.892503
796.399	18.571188
796.601	18.207103
796.803	18.033468
797.004	17.845239
797.206	17.799114
797.407	17.611792
797.609	17.366583
797.811	17.134701
798.012	17.124574
798.214	16.927722
798.415	16.662397
798.617	16.567175
798.818	16.543840
799.020	16.360145
799.221	16.212473
799.423	15.847431
799.624	15.475376
799.826	15.242173
800.027	15.039740
800.228	14.766315
800.430	14.626036
800.631	14.457759
800.832	14.143204
801.034	13.951513
801.235	13.938433
801.436	13.808067
801.637	13.837632
801.839	13.895294
802.040	13.941889
802.241	14.036705
802.442	14.153407
802.643	14.288477
802.844	14.295073
803.046	14.367557
803.247	14.233821
803.448	14.030665
803.649	13.974026
803.850	13.961383
804.051	13.925924
804.252	13.892673
804.453	13.762817
804.654	13.615051
804.855	13.430240
805.056	13.398572
805.257	13.264979
805.458	13.197903
805.659	13.142067
805.859	13.101417
806.060	13.029710
806.261	12.972268
806.462	12.907521
806.663	12.957094
806.864	13.080537
807.064	12.999499
807.265	12.930980
807.466	13.056335
807.667	13.306129
807.867	13.400112
808.068	13.372781
808.269	13.357094
808.469	13.387843
808.670	13.421959
808.870	13.427274
809.071	13.346608
809.272	13.391639
809.472	13.528303
809.673	13.496918
809.873	13.357415
810.074	13.358600
810.274	13.505055
810.475	13.627408
810.675	13.698798
810.876	13.827013
811.076	14.053046
811.276	14.274441
811.477	14.572038
811.677	14.729009
811.878	14.897726
812.078	15.022447
812.278	15.071607
812.479	15.188402
812.679	15.344365
812.879	15.597230
813.079	15.728420
813.280	15.735568
813.480	15.817865
813.680	15.810071
813.880	15.844928
814.080	15.998925
814.280	16.349048
814.480	16.865069
814.681	17.239589
814.881	17.494377
815.081	17.700601
815.281	18.025611
815.481	18.325011
815.681	18.640593
815.881	19.106209
816.081	19.522917
816.281	19.844974
816.481	20.030494
816.681	20.201256
816.880	20.320087
817.080	20.371032
817.280	20.587683
817.480	20.776443
817.680	20.955817
817.880	21.099653
818.080	21.121694
818.279	21.334437
818.479	21.499700
818.679	21.727605
818.879	21.963533
819.078	22.221665
819.278	22.619193
819.478	22.822736
819.677	23.131087
819.877	23.533661
820.077	23.971634
820.276	24.426918
820.476	24.700107
820.675	24.951699
820.875	25.113422
821.074	25.287496
821.274	25.396692
821.473	25.537323
821.673	25.616240
821.872	25.621051
822.072	25.653630
822.271	25.716131
822.471	25.965439
822.670	26.240364
822.869	26.504279
823.069	26.866031
823.268	27.236373
823.467	27.643016
823.667	27.955885
823.866	28.377662
824.065	28.786891
824.265	29.144214
824.464	29.348605
824.663	29.508779
824.862	29.725318
825.061	30.172491
825.261	30.361733
825.460	30.361241
825.659	30.534522
825.858	30.648257
826.057	30.809013
826.256	30.920438
826.455	31.028124
826.654	31.112361
826.853	31.233143
827.052	31.445060
