Date	2025年07月03日木曜日 09時49分11秒
Spectrometers	SR401765
ダーク	使用
リファレンス	使用
積分時間[msec]	300
平均回数	1
ｽﾑｰｼﾞﾝｸﾞ	5
Electrical Dark	USE
ピクセル数	3648
計測モード	反射率
保存開始波長[nm]	598.495
保存終了波長[nm]	1274.802
保存ﾋﾟｯﾁ波長[nm]	全波長

>>>>>>>>>> Data Start <<<<<<<<<<<<
598.495	-81.459944
598.713	-81.459944
598.931	-81.459944
599.148	-81.459944
599.366	0.000000
599.584	0.000000
599.802	0.000000
600.020	0.000000
600.238	0.000000
600.455	19.443510
600.673	272.556308
600.891	35.327509
601.109	34.772285
601.326	34.101161
601.544	33.458477
601.762	33.119939
601.979	33.044318
602.197	32.881429
602.415	32.957148
602.632	32.967452
602.850	33.021032
603.067	33.080956
603.285	33.375144
603.502	33.494364
603.720	33.535761
603.938	33.803819
604.155	34.077469
604.372	34.352871
604.590	34.693569
604.807	34.735484
605.025	34.808326
605.242	34.974716
605.460	35.095497
605.677	34.938734
605.894	34.845360
606.112	34.974707
606.329	35.119861
606.546	35.336446
606.764	35.556705
606.981	35.746261
607.198	36.000873
607.415	36.308777
607.633	36.432758
607.850	36.661285
608.067	37.106849
608.284	37.519525
608.501	37.885162
608.718	37.959949
608.935	37.985368
609.153	38.014895
609.370	38.256805
609.587	38.592264
609.804	38.699577
610.021	38.915632
610.238	38.827587
610.455	38.751895
610.672	38.885813
610.889	38.998064
611.106	39.193739
611.323	39.378644
611.540	39.501765
611.756	39.537544
611.973	39.690500
612.190	39.876524
612.407	40.083859
612.624	40.440855
612.841	40.661402
613.057	40.948468
613.274	41.341379
613.491	41.582123
613.708	41.738178
613.925	41.954006
614.141	41.878467
614.358	41.796389
614.575	41.978477
614.791	42.162493
615.008	42.320574
615.225	42.601787
615.441	42.715178
615.658	42.535729
615.874	42.478150
616.091	42.599849
616.307	42.768152
616.524	43.086301
616.740	43.362665
616.957	43.405140
617.173	43.429488
617.390	43.651260
617.606	43.820942
617.823	44.003329
618.039	44.162720
618.256	44.430555
618.472	44.632256
618.688	44.878943
618.905	45.366005
619.121	45.819412
619.337	46.262215
619.554	46.658540
619.770	46.962367
619.986	47.137545
620.202	47.274400
620.419	47.663429
620.635	47.931208
620.851	48.138436
621.067	48.274080
621.283	48.264763
621.499	48.097577
621.716	48.208903
621.932	48.344850
622.148	48.350562
622.364	48.586869
622.580	48.982571
622.796	49.402713
623.012	49.741406
623.228	50.031380
623.444	50.408125
623.660	50.803033
623.876	51.120561
624.092	51.317069
624.308	51.762832
624.524	52.346615
624.740	52.619829
624.955	52.629571
625.171	52.571532
625.387	52.796826
625.603	53.132067
625.819	53.265424
626.034	53.297101
626.250	53.498814
626.466	53.658816
626.682	53.706603
626.897	53.729712
627.113	53.852654
627.329	53.784915
627.544	53.663644
627.760	53.696795
627.976	53.875817
628.191	54.186462
628.407	54.360037
628.623	54.483740
628.838	54.671058
629.054	54.689739
629.269	54.675233
629.485	54.678802
629.700	54.988018
629.916	55.479196
630.131	55.792212
630.347	55.918260
630.562	55.990983
630.777	56.280211
630.993	56.697154
631.208	57.012540
631.424	57.336186
631.639	57.733711
631.854	58.193839
632.070	58.661041
632.285	58.908527
632.500	58.989043
632.715	59.009962
632.931	59.128963
633.146	59.282724
633.361	59.418051
633.576	59.457123
633.791	59.581118
634.007	59.752089
634.222	59.858030
634.437	59.862416
634.652	59.895090
634.867	60.041029
635.082	60.355786
635.297	60.552158
635.512	60.612593
635.727	60.541695
635.942	60.614004
636.157	60.858196
636.372	61.041195
636.587	61.253959
636.802	61.352183
637.017	61.355681
637.232	61.375468
637.447	61.335037
637.662	61.189724
637.876	61.286086
638.091	61.513871
638.306	61.664314
638.521	61.529104
638.736	61.465454
638.951	61.444557
639.165	61.584885
639.380	61.861768
639.595	61.964922
639.809	62.103537
640.024	62.436503
640.239	62.503286
640.453	62.553322
640.668	62.580101
640.883	62.682426
641.097	62.871444
641.312	63.117644
641.526	63.338512
641.741	63.454387
641.955	63.924753
642.170	64.361711
642.384	64.693788
642.599	64.930540
642.813	65.203754
643.028	65.699979
643.242	66.235196
643.457	66.416831
643.671	66.621120
643.885	67.077538
644.100	67.556806
644.314	67.611063
644.528	67.610708
644.743	67.833500
644.957	68.297842
645.171	68.509402
645.386	68.226254
645.600	68.076247
645.814	68.049657
646.028	67.857108
646.242	67.418777
646.457	66.944463
646.671	66.685187
646.885	66.616335
647.099	66.562353
647.313	66.501020
647.527	66.589674
647.741	66.933904
647.955	67.069844
648.169	67.291035
648.383	67.619838
648.597	67.974036
648.811	68.561668
649.025	69.073648
649.239	69.129446
649.453	68.842553
649.667	68.643068
649.881	68.559501
650.095	68.466921
650.309	68.621556
650.523	68.830749
650.737	68.613176
650.950	68.503977
651.164	68.396033
651.378	68.284280
651.592	68.432216
651.805	68.676820
652.019	68.789982
652.233	68.706448
652.447	68.753301
652.660	68.721334
652.874	68.639463
653.088	68.950026
653.301	69.202514
653.515	69.362425
653.728	69.403290
653.942	69.324013
654.156	69.402722
654.369	69.560608
654.583	69.788066
654.796	70.037446
655.010	70.256072
655.223	70.292689
655.437	70.398724
655.650	70.649948
655.863	70.780724
656.077	70.979083
656.290	71.242487
656.504	71.262790
656.717	71.249889
656.930	71.368637
657.144	71.505631
657.357	71.584263
657.570	71.526185
657.783	71.302257
657.997	71.117091
658.210	71.073998
658.423	71.192239
658.636	71.311929
658.849	71.409404
659.063	71.396203
659.276	71.485699
659.489	71.576496
659.702	71.535099
659.915	71.561475
660.128	71.592442
660.341	71.523402
660.554	71.481160
660.767	71.328690
660.980	71.319539
661.193	71.509738
661.406	71.672536
661.619	71.587485
661.832	71.507745
662.045	71.737091
662.258	72.251366
662.471	72.657146
662.684	72.789845
662.897	72.962652
663.110	73.136698
663.322	73.359619
663.535	73.675193
663.748	74.002463
663.961	74.460111
664.174	74.855549
664.386	74.773848
664.599	74.585115
664.812	74.621696
665.024	74.822721
665.237	74.963800
665.450	75.070774
665.662	75.105856
665.875	75.052040
666.088	75.198485
666.300	75.281003
666.513	75.214348
666.725	75.190292
666.938	75.441023
667.150	75.898907
667.363	76.358503
667.575	76.693895
667.788	77.047876
668.000	77.460243
668.213	77.602204
668.425	77.524109
668.638	77.460674
668.850	77.415161
669.062	77.512725
669.275	77.464150
669.487	77.232919
669.699	76.910527
669.912	76.749386
670.124	76.759275
670.336	76.613870
670.548	76.672033
670.761	76.837626
670.973	76.980740
671.185	77.086864
671.397	77.165668
671.609	77.159777
671.822	77.174076
672.034	77.279818
672.246	77.420838
672.458	77.372775
672.670	77.216932
672.882	77.150749
673.094	77.088219
673.306	76.933814
673.518	76.864298
673.730	76.833413
673.942	76.831155
674.154	76.883579
674.366	76.857817
674.578	76.690946
674.790	76.643802
675.002	76.543260
675.214	76.371053
675.425	76.284460
675.637	76.258812
675.849	76.262156
676.061	76.315712
676.273	76.298949
676.484	76.247786
676.696	76.369595
676.908	76.679851
677.120	76.911475
677.331	77.355131
677.543	77.784927
677.755	77.874953
677.966	77.938531
678.178	78.134871
678.389	78.443982
678.601	78.673865
678.813	78.679229
679.024	78.487601
679.236	78.373799
679.447	78.392987
679.659	78.456837
679.870	78.520667
680.082	78.671774
680.293	78.690393
680.505	78.453025
680.716	78.184563
680.927	78.048265
681.139	78.143661
681.350	78.304617
681.562	78.130916
681.773	78.014613
681.984	77.953654
682.196	77.696231
682.407	77.683694
682.618	78.018296
682.829	78.209920
683.041	78.198067
683.252	78.404349
683.463	78.648175
683.674	78.847666
683.885	78.949169
684.097	78.760974
684.308	78.543463
684.519	78.465943
684.730	78.327606
684.941	78.051545
685.152	78.226804
685.363	78.737582
685.574	78.740895
685.785	78.341748
685.996	78.030117
686.207	78.170820
686.418	78.632001
686.629	79.025028
686.840	79.401222
687.051	79.612566
687.262	79.674775
687.473	79.486458
687.684	79.098962
687.894	78.955048
688.105	79.157432
688.316	79.393389
688.527	79.257032
688.738	78.747988
688.948	78.108766
689.159	77.467632
689.370	76.993088
689.580	76.850817
689.791	76.980943
690.002	77.212674
690.212	77.437731
690.423	77.508693
690.634	77.479063
690.844	77.686241
691.055	78.153836
691.266	78.705221
691.476	79.310701
691.687	79.699641
691.897	79.790766
692.108	79.705793
692.318	79.566186
692.529	79.354461
692.739	79.167928
692.949	78.942363
693.160	78.700425
693.370	78.737888
693.581	78.796684
693.791	78.781244
694.001	78.980972
694.212	79.368836
694.422	79.848980
694.632	80.266860
694.843	80.750537
695.053	81.316547
695.263	81.859702
695.473	82.349023
695.683	82.392396
695.894	82.272325
696.104	82.151598
696.314	81.806614
696.524	81.222120
696.734	80.692935
696.944	80.303320
697.154	79.930473
697.365	79.348106
697.575	78.861073
697.785	78.453826
697.995	78.134345
698.205	78.011772
698.415	78.114321
698.625	78.357617
698.834	78.499929
699.044	78.496146
699.254	78.549050
699.464	78.543531
699.674	78.622226
699.884	78.718892
700.094	78.957651
700.304	79.271967
700.513	79.304525
700.723	78.969777
700.933	78.729547
701.143	79.015900
701.353	79.347906
701.562	79.402267
701.772	79.368028
701.982	79.174796
702.191	78.779817
702.401	78.241425
702.611	77.781924
702.820	77.886543
703.030	78.254983
703.239	78.492231
703.449	78.538569
703.659	78.296292
703.868	78.057483
704.078	78.295899
704.287	78.912804
704.497	79.701483
704.706	80.213621
704.916	80.390655
705.125	80.199007
705.334	80.003934
705.544	79.747879
705.753	79.136244
705.962	78.889721
706.172	78.769373
706.381	78.362756
706.590	77.942847
706.800	77.548337
707.009	77.400308
707.218	77.312361
707.428	77.211567
707.637	77.184497
707.846	77.252176
708.055	77.471710
708.264	77.598574
708.474	77.890620
708.683	78.092001
708.892	78.118181
709.101	78.179771
709.310	78.230474
709.519	78.497882
709.728	78.668204
709.937	78.606751
710.146	78.499521
710.355	78.401823
710.564	78.277267
710.773	78.264144
710.982	78.561741
711.191	79.035431
711.400	79.600461
711.609	80.061091
711.818	80.179055
712.027	80.181376
712.235	80.365630
712.444	80.705748
712.653	80.775442
712.862	80.668802
713.071	80.371079
713.279	79.989487
713.488	79.687850
713.697	79.356497
713.906	79.028818
714.114	78.901625
714.323	78.893882
714.532	78.819836
714.740	78.529337
714.949	78.441361
715.157	78.422298
715.366	78.433704
715.575	78.563512
715.783	78.669231
715.992	78.567788
716.200	78.386539
716.409	78.238817
716.617	78.357420
716.826	78.648939
717.034	78.961083
717.242	79.081030
717.451	79.271095
717.659	79.382573
717.868	79.309911
718.076	79.082125
718.284	78.819779
718.493	78.572497
718.701	78.360299
718.909	78.127186
719.118	77.585967
719.326	77.027822
719.534	76.956692
719.742	77.073442
719.951	77.077793
720.159	77.079209
720.367	77.236097
720.575	77.526264
720.783	77.854738
720.991	78.186433
721.199	78.396741
721.408	78.621874
721.616	78.990107
721.824	79.447125
722.032	79.733548
722.240	79.914853
722.448	79.976402
722.656	79.724796
722.864	79.490144
723.072	79.498015
723.280	79.447498
723.487	79.099525
723.695	78.723636
723.903	78.302797
724.111	77.750387
724.319	77.261230
724.527	76.982474
724.735	76.712698
724.942	76.583311
725.150	76.506094
725.358	76.356507
725.566	76.434843
725.773	76.811247
725.981	77.181702
726.189	77.371745
726.396	77.395216
726.604	77.329970
726.812	77.083281
727.019	77.106013
727.227	77.412975
727.435	77.672287
727.642	77.738920
727.850	77.593972
728.057	77.195901
728.265	76.767318
728.472	76.510926
728.680	76.432842
728.887	76.392977
729.095	76.450393
729.302	76.442180
729.509	76.190811
729.717	75.789163
729.924	75.508198
730.132	75.396605
730.339	75.597117
730.546	76.014549
730.753	76.544685
730.961	76.831410
731.168	76.996876
731.375	77.383224
731.583	77.550169
731.790	77.484011
731.997	77.623501
732.204	77.794554
732.411	77.489138
732.618	76.954606
732.826	76.582161
733.033	76.199183
733.240	75.984217
733.447	75.889745
733.654	75.679681
733.861	75.592652
734.068	75.448653
734.275	75.114612
734.482	74.793467
734.689	75.006588
734.896	75.575264
735.103	75.846239
735.310	75.901624
735.517	75.780024
735.724	75.827087
735.931	75.872846
736.137	75.804480
736.344	75.920462
736.551	76.066356
736.758	75.862706
736.965	75.123431
737.171	73.936539
737.378	72.948386
737.585	72.345574
737.792	72.061557
737.998	71.823806
738.205	71.654275
738.412	71.315803
738.618	70.923426
738.825	70.572676
739.032	70.619694
739.238	70.966339
739.445	71.344641
739.651	71.729867
739.858	72.137726
740.064	72.578041
740.271	72.785185
740.477	72.712181
740.684	72.632790
740.890	72.637550
741.097	72.725834
741.303	72.756190
741.510	72.888899
741.716	73.213002
741.922	73.488745
742.129	73.367727
742.335	73.076003
742.541	72.813437
742.748	72.605967
742.954	72.539869
743.160	72.528135
743.366	72.577466
743.573	72.504714
743.779	72.387142
743.985	72.380097
744.191	72.210504
744.397	72.268420
744.604	72.394900
744.810	72.491590
745.016	72.694911
745.222	73.046577
745.428	73.346600
745.634	73.457095
745.840	73.270601
746.046	72.733382
746.252	72.053496
746.458	71.642236
746.664	71.369671
746.870	71.062068
747.076	70.913111
747.282	70.934778
747.488	70.790764
747.694	70.519537
747.900	70.169557
748.105	70.235563
748.311	70.523889
748.517	70.812041
748.723	71.169004
748.929	71.511520
749.134	71.961953
749.340	72.208951
749.546	72.038203
749.752	71.972072
749.957	71.960602
750.163	72.033274
750.369	71.921400
750.574	71.802573
750.780	71.633075
750.985	71.541372
751.191	71.314872
751.397	70.884252
751.602	70.570020
751.808	70.324250
752.013	69.854154
752.219	69.535755
752.424	69.680707
752.630	70.065243
752.835	70.432796
753.041	70.811041
753.246	70.876305
753.451	70.842824
753.657	70.705651
753.862	70.408403
754.067	70.245029
754.273	70.476349
754.478	70.694315
754.683	70.493076
754.889	69.894814
755.094	69.086616
755.299	68.541394
755.504	68.074997
755.710	67.728683
755.915	67.733585
756.120	67.886617
756.325	68.010022
756.530	67.901334
756.735	67.538347
756.940	67.108589
757.146	66.939614
757.351	67.095450
757.556	67.164709
757.761	67.126617
757.966	67.156885
758.171	66.942312
758.376	66.536672
758.581	66.074973
758.786	65.747848
758.990	65.667690
759.195	65.731312
759.400	65.664114
759.605	65.228316
759.810	64.854514
760.015	64.789632
760.220	64.451376
760.424	64.211748
760.629	63.892586
760.834	63.661518
761.039	63.485480
761.244	63.432499
761.448	63.543827
761.653	63.764993
761.858	64.210383
762.062	64.504603
762.267	64.406425
762.472	64.319437
762.676	64.090640
762.881	63.990608
763.085	63.806599
763.290	63.491063
763.494	62.855050
763.699	62.035937
763.903	61.278116
764.108	60.691726
764.312	60.115716
764.517	59.785785
764.721	59.522540
764.926	59.382438
765.130	59.399898
765.335	59.361389
765.539	59.190131
765.743	59.131565
765.948	59.160689
766.152	59.227623
766.356	58.930430
766.560	58.648892
766.765	58.369191
766.969	58.201566
767.173	58.042319
767.377	57.833695
767.582	57.704842
767.786	57.673395
767.990	57.801880
768.194	57.875332
768.398	57.867672
768.602	58.004874
768.806	58.199914
769.010	58.421398
769.215	58.485855
769.419	58.503138
769.623	58.525189
769.827	58.502597
770.031	58.368602
770.234	58.080376
770.438	57.887868
770.642	57.491124
770.846	57.079242
771.050	56.643360
771.254	56.142920
771.458	55.896539
771.662	55.706664
771.866	55.543432
772.069	55.272085
772.273	54.915900
772.477	54.455095
772.681	53.999724
772.885	53.766327
773.088	53.454845
773.292	53.132763
773.496	52.900447
773.699	52.683822
773.903	52.338710
774.107	51.736092
774.310	51.290947
774.514	50.905515
774.717	50.653282
774.921	50.326050
775.124	49.973284
775.328	49.865077
775.531	49.874406
775.735	49.816591
775.938	49.726663
776.142	49.519256
776.345	49.422932
776.549	49.568432
776.752	49.884746
776.956	50.190110
777.159	50.286946
777.362	50.165212
777.566	50.020088
777.769	49.696236
777.972	49.358633
778.176	48.969243
778.379	48.707360
778.582	48.402535
778.785	47.887508
778.989	47.232857
779.192	46.464969
779.395	45.907580
779.598	45.507146
779.801	45.035861
780.004	44.629850
780.207	44.121871
780.411	43.544384
780.614	42.996681
780.817	42.589034
781.020	42.169978
781.223	41.892909
781.426	41.813933
781.629	41.619780
781.832	41.400738
782.035	41.204061
782.238	40.989174
782.440	40.739529
782.643	40.398275
782.846	40.135407
783.049	39.843493
783.252	39.568079
783.455	39.228278
783.658	38.845296
783.860	38.536539
784.063	38.274331
784.266	37.951174
784.469	37.707246
784.671	37.535937
784.874	37.355365
785.077	37.112511
785.279	36.856173
785.482	36.652117
785.685	36.414256
785.887	36.099724
786.090	35.747747
786.293	35.212567
786.495	34.726130
786.698	34.174746
786.900	33.666581
787.103	33.346081
787.305	32.956160
787.508	32.530455
787.710	32.173237
787.913	31.837620
788.115	31.483560
788.317	31.175860
788.520	31.024530
788.722	30.700485
788.924	30.323150
789.127	30.022467
789.329	29.600220
789.531	29.294684
789.734	29.027907
789.936	28.611005
790.138	28.278681
790.340	27.919701
790.543	27.505974
790.745	27.116794
790.947	26.876981
791.149	26.751033
791.351	26.515937
791.553	26.292789
791.756	26.006310
791.958	25.789443
792.160	25.620648
792.362	25.409616
792.564	25.254221
792.766	25.099109
792.968	24.912573
793.170	24.599351
793.372	24.144406
793.574	23.773184
793.776	23.335052
793.978	22.844691
794.180	22.409963
794.381	21.922895
794.583	21.405614
794.785	20.933250
794.987	20.508537
795.189	20.147746
795.391	19.850732
795.592	19.558280
795.794	19.175562
795.996	18.947379
796.198	18.797150
796.399	18.564025
796.601	18.343394
796.803	18.073687
797.004	17.673821
797.206	17.462339
797.407	17.201241
797.609	16.870678
797.811	16.480634
798.012	16.261276
798.214	15.879212
798.415	15.498764
798.617	15.230490
798.818	15.068373
799.020	14.894441
799.221	14.738611
799.423	14.370119
799.624	13.953008
799.826	13.698584
800.027	13.576412
800.228	13.279692
800.430	13.126628
800.631	12.894722
800.832	12.638200
801.034	12.406716
801.235	12.244568
801.436	12.101584
801.637	12.060852
801.839	12.127450
802.040	12.069668
802.241	12.059414
802.442	12.070117
802.643	12.017733
802.844	12.001348
803.046	11.926387
803.247	11.656855
803.448	11.405829
803.649	11.265939
803.850	11.194904
804.051	10.985182
804.252	10.821447
804.453	10.588123
804.654	10.394431
804.855	10.189564
805.056	10.074346
805.257	9.846458
805.458	9.774924
805.659	9.730137
805.859	9.633273
806.060	9.397891
806.261	9.264823
806.462	9.212801
806.663	9.203356
806.864	9.138949
807.064	9.128227
807.265	9.063113
807.466	9.178175
807.667	9.314790
807.867	9.344789
808.068	9.323048
808.269	9.426226
808.469	9.466840
808.670	9.526047
808.870	9.466502
809.071	9.440056
809.272	9.389753
809.472	9.409286
809.673	9.408159
809.873	9.232143
810.074	9.051469
810.274	9.001994
810.475	9.039001
810.675	9.046680
810.876	9.034890
811.076	9.159770
811.276	9.305850
811.477	9.434137
811.677	9.570171
811.878	9.614358
812.078	9.690867
812.278	9.744041
812.479	9.866861
812.679	9.938641
812.879	10.114646
813.079	10.245346
813.280	10.277179
813.480	10.284639
813.680	10.209654
813.880	10.136139
814.080	10.205507
814.280	10.427201
814.480	10.857912
814.681	11.109280
814.881	11.224502
815.081	11.327684
815.281	11.506084
815.481	11.675037
815.681	11.913086
815.881	12.322222
816.081	12.725961
816.281	12.976610
816.481	13.122950
816.681	13.197470
816.880	13.333907
817.080	13.512012
817.280	13.629819
817.480	13.833713
817.680	14.047344
817.880	14.328157
818.080	14.526768
818.279	14.711137
818.479	14.881619
818.679	15.070160
818.879	15.343808
819.078	15.566997
819.278	15.831118
819.478	16.124806
819.677	16.295672
819.877	16.589830
820.077	16.766180
820.276	16.970430
820.476	17.168405
820.675	17.339595
820.875	17.479841
821.074	17.609455
821.274	17.860477
821.473	18.191420
821.673	18.396749
821.872	18.581173
822.072	18.829498
822.271	19.022860
822.471	19.285034
822.670	19.567871
822.869	19.910191
823.069	20.355476
823.268	20.695610
823.467	20.903884
823.667	20.966157
823.866	21.164950
824.065	21.484932
824.265	21.706847
824.464	21.901231
824.663	22.148888
824.862	22.420825
825.061	22.761737
825.261	22.818343
825.460	22.898403
825.659	23.128380
825.858	23.302701
826.057	23.521482
826.256	23.674132
826.455	23.803965
826.654	24.064267
826.853	24.138639
827.052	24.273023
827.251	24.532356
827.450	24.891441
827.649	25.333659
