Date	2025年07月03日木曜日 09時51分47秒
Spectrometers	SR401765
ダーク	使用
リファレンス	使用
積分時間[msec]	300
平均回数	1
ｽﾑｰｼﾞﾝｸﾞ	5
Electrical Dark	USE
ピクセル数	3648
計測モード	反射率
保存開始波長[nm]	598.495
保存終了波長[nm]	1274.802
保存ﾋﾟｯﾁ波長[nm]	全波長

>>>>>>>>>> Data Start <<<<<<<<<<<<
598.495	-9.086262
598.713	-9.086262
598.931	-9.086262
599.148	-9.086262
599.366	0.000000
599.584	0.000000
599.802	0.000000
600.020	0.000000
600.238	0.000000
600.455	-159.334682
600.673	-21.849930
600.891	73.165210
601.109	72.117121
601.326	72.163433
601.544	71.708634
601.762	71.207056
601.979	71.250718
602.197	71.768666
602.415	72.157026
602.632	71.956933
602.850	71.887906
603.067	71.931520
603.285	72.118839
603.502	72.314719
603.720	72.147235
603.938	72.324504
604.155	72.581575
604.372	72.455773
604.590	72.111867
604.807	71.662569
605.025	71.564827
605.242	71.782010
605.460	71.746181
605.677	71.424656
605.894	71.338604
606.112	71.589664
606.329	71.576255
606.546	71.545410
606.764	71.768817
606.981	72.041315
607.198	72.293293
607.415	72.293174
607.633	72.073543
607.850	72.093869
608.067	72.409693
608.284	72.452745
608.501	72.562396
608.718	72.558771
608.935	72.549385
609.153	72.613604
609.370	72.729708
609.587	72.476966
609.804	72.487137
610.021	72.606989
610.238	72.454650
610.455	72.232448
610.672	72.187388
610.889	72.025712
611.106	71.941412
611.323	72.025083
611.540	72.039998
611.756	71.945072
611.973	72.466954
612.190	73.053238
612.407	73.517839
612.624	73.973907
612.841	74.120820
613.057	74.113253
613.274	74.308901
613.491	74.561851
613.708	74.675271
613.925	74.920822
614.141	74.968702
614.358	74.899396
614.575	74.802192
614.791	74.671543
615.008	74.528090
615.225	74.723543
615.441	74.918777
615.658	74.801908
615.874	74.632322
616.091	74.573855
616.307	74.394655
616.524	74.562652
616.740	74.951745
616.957	75.113109
617.173	75.153109
617.390	75.239210
617.606	75.036915
617.823	74.917692
618.039	75.011997
618.256	75.570299
618.472	75.972741
618.688	76.271261
618.905	76.600341
619.121	76.562637
619.337	76.521762
619.554	76.597221
619.770	76.766752
619.986	77.106098
620.202	77.578999
620.419	77.898140
620.635	77.719888
620.851	77.577454
621.067	77.594641
621.283	77.575805
621.499	77.548951
621.716	77.645086
621.932	77.781106
622.148	77.991056
622.364	78.366034
622.580	78.572168
622.796	78.785029
623.012	79.101966
623.228	79.242445
623.444	79.412589
623.660	79.544308
623.876	79.637942
624.092	79.667314
624.308	79.728027
624.524	79.921854
624.740	79.887885
624.955	79.775315
625.171	79.788136
625.387	79.785692
625.603	79.901849
625.819	79.766281
626.034	79.421825
626.250	79.254704
626.466	79.397349
626.682	79.726704
626.897	79.935172
627.113	80.254569
627.329	80.218804
627.544	80.097488
627.760	80.323956
627.976	80.611982
628.191	80.894445
628.407	81.011756
628.623	81.127831
628.838	81.074879
629.054	80.824264
629.269	80.613428
629.485	80.447184
629.700	80.770308
629.916	81.054117
630.131	81.086537
630.347	81.102850
630.562	81.285498
630.777	81.731651
630.993	82.170468
631.208	82.482764
631.424	82.560679
631.639	82.458103
631.854	82.362620
632.070	82.231647
632.285	82.122950
632.500	82.052848
632.715	82.072927
632.931	82.041045
633.146	82.136079
633.361	82.398742
633.576	82.606010
633.791	82.726120
634.007	82.749353
634.222	82.761487
634.437	82.697492
634.652	82.534379
634.867	82.415156
635.082	82.476944
635.297	82.844232
635.512	83.023519
635.727	82.675233
635.942	82.285916
636.157	82.359107
636.372	82.780573
636.587	83.164580
636.802	83.449346
637.017	83.847231
637.232	84.280168
637.447	84.573730
637.662	84.473624
637.876	84.319565
638.091	84.006681
638.306	84.029150
638.521	84.309137
638.736	84.225432
638.951	83.921420
639.165	83.712244
639.380	83.303048
639.595	82.657499
639.809	81.917814
640.024	81.420662
640.239	81.145281
640.453	81.484167
640.668	81.517318
640.883	80.991560
641.097	80.888334
641.312	81.049987
641.526	81.240082
641.741	81.599476
641.955	82.020893
642.170	82.511618
642.384	82.913819
642.599	83.109907
642.813	83.099086
643.028	83.301604
643.242	83.577171
643.457	83.752493
643.671	84.076364
643.885	84.322950
644.100	84.606630
644.314	84.797398
644.528	84.866308
644.743	84.962752
644.957	85.144931
645.171	85.349933
645.386	85.392750
645.600	85.700081
645.814	85.662614
646.028	85.339126
646.242	85.060449
646.457	84.677174
646.671	84.169990
646.885	83.883940
647.099	83.869463
647.313	84.006984
647.527	84.233102
647.741	84.630892
647.955	84.776416
648.169	84.843261
648.383	84.699485
648.597	84.594179
648.811	84.650101
649.025	85.029106
649.239	85.214710
649.453	85.018545
649.667	84.734159
649.881	84.532878
650.095	84.308890
650.309	84.127019
650.523	83.968441
650.737	83.814192
650.950	83.661375
651.164	83.517748
651.378	83.463904
651.592	83.408638
651.805	83.369701
652.019	83.362488
652.233	82.930340
652.447	82.345371
652.660	81.834560
652.874	81.511180
653.088	81.465194
653.301	81.527084
653.515	81.846077
653.728	81.947099
653.942	81.955595
654.156	82.182317
654.369	82.398458
654.583	82.808969
654.796	83.388586
655.010	83.843026
655.223	84.068424
655.437	84.299814
655.650	84.588450
655.863	84.593152
656.077	84.345530
656.290	84.216110
656.504	84.109987
656.717	84.219787
656.930	84.258273
657.144	84.118002
657.357	84.126607
657.570	84.419801
657.783	84.783893
657.997	85.009244
658.210	84.996959
658.423	85.198999
658.636	85.544513
658.849	85.636609
659.063	85.368979
659.276	85.391798
659.489	85.644878
659.702	85.704198
659.915	85.638657
660.128	85.423340
660.341	85.425316
660.554	85.684075
660.767	85.840127
660.980	85.651339
661.193	85.506137
661.406	85.514504
661.619	85.445885
661.832	85.345946
662.045	85.478756
662.258	85.432336
662.471	85.389163
662.684	85.232787
662.897	85.078972
663.110	85.061040
663.322	85.540395
663.535	86.134766
663.748	86.313569
663.961	86.384342
664.174	86.390862
664.386	86.133275
664.599	86.158955
664.812	86.293493
665.024	86.311271
665.237	86.300460
665.450	86.330585
665.662	86.217586
665.875	85.968661
666.088	86.150221
666.300	86.378226
666.513	86.531370
666.725	86.734705
666.938	86.846942
667.150	86.724892
667.363	86.597525
667.575	86.565482
667.788	86.742539
668.000	86.828115
668.213	86.731800
668.425	86.414740
668.638	86.179037
668.850	86.081397
669.062	86.061843
669.275	86.216661
669.487	86.466829
669.699	86.535642
669.912	86.545587
670.124	86.438805
670.336	86.354700
670.548	86.519334
670.761	86.697921
670.973	86.706043
671.185	86.338253
671.397	85.862269
671.609	85.327190
671.822	85.066926
672.034	85.199303
672.246	85.316164
672.458	85.293567
672.670	84.960400
672.882	84.710714
673.094	84.847505
673.306	85.198501
673.518	85.914670
673.730	86.648824
673.942	87.169501
674.154	87.426051
674.366	87.344061
674.578	87.235717
674.790	87.075010
675.002	86.953500
675.214	86.649764
675.425	86.403632
675.637	86.075826
675.849	85.704028
676.061	85.513323
676.273	85.339447
676.484	85.293003
676.696	85.569859
676.908	85.907994
677.120	86.384301
677.331	87.119449
677.543	87.769095
677.755	87.857174
677.966	87.789097
678.178	87.778377
678.389	87.768329
678.601	87.948179
678.813	88.010973
679.024	87.612431
679.236	86.813945
679.447	86.033025
679.659	85.266753
679.870	84.576151
680.082	83.941240
680.293	83.546124
680.505	83.213607
680.716	82.845540
680.927	82.703740
681.139	82.937071
681.350	83.307598
681.562	83.645623
681.773	83.817404
681.984	83.914472
682.196	84.031862
682.407	84.636215
682.618	85.206782
682.829	85.268730
683.041	85.215694
683.252	84.966059
683.463	84.455797
683.674	83.977033
683.885	83.873182
684.097	83.968232
684.308	84.168575
684.519	84.587630
684.730	84.768323
684.941	84.910834
685.152	85.552310
685.363	86.252695
685.574	86.571141
685.785	86.567290
685.996	86.605251
686.207	86.881916
686.418	87.449181
686.629	88.065781
686.840	88.308650
687.051	88.247301
687.262	88.077719
687.473	87.754270
687.684	87.178451
687.894	86.796336
688.105	86.668186
688.316	86.522222
688.527	86.125600
688.738	85.326565
688.948	84.256730
689.159	83.376991
689.370	82.730551
689.580	82.343966
689.791	82.219749
690.002	82.428253
690.212	82.751850
690.423	82.987201
690.634	83.373043
690.844	83.801567
691.055	84.172863
691.266	84.558339
691.476	84.722059
691.687	84.843995
691.897	84.819034
692.108	84.701798
692.318	84.609979
692.529	84.378117
692.739	84.068876
692.949	83.635119
693.160	83.349110
693.370	83.505876
693.581	83.811993
693.791	84.093872
694.001	84.369884
694.212	84.645395
694.422	84.782531
694.632	84.734734
694.843	84.940726
695.053	85.469971
695.263	85.851834
695.473	86.090970
695.683	86.075024
695.894	85.913074
696.104	85.848938
696.314	85.858843
696.524	86.001853
696.734	86.163217
696.944	86.486288
697.154	86.595984
697.365	86.268196
697.575	86.216612
697.785	86.177238
697.995	86.140883
698.205	86.362397
698.415	86.861894
698.625	87.199717
698.834	87.032790
699.044	86.760753
699.254	86.523132
699.464	86.495350
699.674	86.508122
699.884	86.282825
700.094	86.118742
700.304	85.908111
700.513	85.378776
700.723	84.586324
700.933	84.049976
701.143	83.959377
701.353	83.811542
701.562	83.578644
701.772	83.099817
701.982	82.514568
702.191	81.868945
702.401	81.424071
702.611	81.174884
702.820	81.232905
703.030	81.367719
703.239	81.528161
703.449	81.763071
703.659	82.042714
703.868	82.147009
704.078	82.479473
704.287	83.047219
704.497	83.806616
704.706	84.010659
704.916	83.938574
705.125	83.965121
705.334	84.164631
705.544	83.827015
705.753	82.920513
705.962	82.238350
706.172	81.914981
706.381	81.475549
706.590	81.012279
706.800	80.652532
707.009	80.791192
707.218	81.030236
707.428	80.991058
707.637	80.927652
707.846	81.246244
708.055	81.767450
708.264	82.105532
708.474	82.247451
708.683	82.275228
708.892	82.172460
709.101	82.056643
709.310	81.866047
709.519	81.688524
709.728	81.532906
709.937	81.345829
710.146	81.214729
710.355	81.016846
710.564	80.667449
710.773	80.509515
710.982	81.020098
711.191	82.033623
711.400	82.840831
711.609	83.230963
711.818	83.467635
712.027	83.586322
712.235	83.568152
712.444	83.491701
712.653	83.485485
712.862	83.588947
713.071	83.545874
713.279	83.127096
713.488	82.544419
713.697	81.851471
713.906	81.203283
714.114	80.732256
714.323	80.232077
714.532	79.737145
714.740	79.140736
714.949	78.588482
715.157	78.141879
715.366	77.719363
715.575	77.479796
715.783	77.448904
715.992	77.660875
716.200	78.029343
716.409	78.291421
716.617	78.685229
716.826	79.104490
717.034	79.551485
717.242	80.013556
717.451	80.489157
717.659	80.888146
717.868	80.790269
718.076	80.154447
718.284	79.485581
718.493	78.915737
718.701	78.316806
718.909	77.842726
719.118	77.422771
719.326	77.054951
719.534	76.713892
719.742	76.405897
719.951	76.222062
720.159	76.182653
720.367	76.160935
720.575	76.040159
720.783	75.851563
720.991	75.871781
721.199	75.957596
721.408	76.059548
721.616	76.155479
721.824	76.271576
722.032	76.406265
722.240	76.443968
722.448	76.530268
722.656	76.778210
722.864	77.023749
723.072	76.995933
723.280	76.519365
723.487	75.757532
723.695	75.160725
723.903	74.680993
724.111	74.210907
724.319	73.927227
724.527	73.684918
724.735	73.359684
724.942	72.872472
725.150	72.387869
725.358	72.254188
725.566	72.498853
725.773	73.013655
725.981	73.325754
726.189	73.409962
726.396	73.465314
726.604	73.302192
726.812	73.212932
727.019	73.259336
727.227	73.441880
727.435	73.587385
727.642	73.591872
727.850	73.389561
728.057	72.859927
728.265	72.209452
728.472	71.671245
728.680	71.358599
728.887	70.901829
729.095	70.240321
729.302	69.678923
729.509	69.213938
729.717	68.977724
729.924	68.926792
730.132	68.906508
730.339	68.842634
730.546	68.850595
730.753	69.001423
730.961	69.008964
731.168	69.087538
731.375	69.417106
731.583	69.411249
731.790	69.183966
731.997	69.071959
732.204	68.812467
732.411	68.362489
732.618	68.133052
732.826	68.080801
733.033	67.875024
733.240	67.772874
733.447	67.736534
733.654	67.466353
733.861	67.322893
734.068	67.152825
734.275	66.621259
734.482	66.081865
734.689	65.897513
734.896	66.000721
735.103	66.233537
735.310	66.501570
735.517	66.399186
735.724	66.090032
735.931	65.835776
736.137	65.877259
736.344	66.147133
736.551	66.527501
736.758	66.747270
736.965	66.613711
737.171	65.886608
737.378	64.842393
737.585	63.826791
737.792	63.083301
737.998	62.624997
738.205	62.390854
738.412	61.885278
738.618	61.292306
738.825	60.491343
739.032	59.683906
739.238	58.979932
739.445	58.378613
739.651	57.910349
739.858	57.542798
740.064	57.260725
740.271	56.725905
740.477	55.819661
740.684	54.978793
740.890	54.256133
741.097	53.839852
741.303	53.830699
741.510	54.008311
741.716	54.253267
741.922	54.448847
742.129	54.444821
742.335	54.340604
742.541	54.268367
742.748	54.243182
742.954	54.315325
743.160	54.448834
743.366	54.470272
743.573	54.052486
743.779	53.595509
743.985	53.244364
744.191	52.781479
744.397	52.509058
744.604	52.381601
744.810	52.267132
745.016	52.184576
745.222	51.985401
745.428	51.674412
745.634	51.322805
745.840	50.961596
746.046	50.413635
746.252	49.883559
746.458	49.502990
746.664	49.128978
746.870	48.532654
747.076	47.975743
747.282	47.632911
747.488	47.306258
747.694	46.892834
747.900	46.414383
748.105	46.034421
748.311	45.813299
748.517	45.475996
748.723	45.178686
748.929	44.917606
749.134	44.867667
749.340	44.898087
749.546	44.676984
749.752	44.355194
749.957	44.153515
750.163	44.008605
750.369	43.969451
750.574	43.893250
750.780	43.733417
750.985	43.622609
751.191	43.416140
751.397	43.122979
751.602	42.811214
751.808	42.359958
752.013	41.734380
752.219	41.123787
752.424	40.666798
752.630	40.184995
752.835	39.510129
753.041	38.833599
753.246	38.077237
753.451	37.429431
753.657	36.828931
753.862	36.114187
754.067	35.753749
754.273	35.759671
754.478	35.655627
754.683	35.438581
754.889	35.109536
755.094	34.889583
755.299	34.833085
755.504	34.722773
755.710	34.502705
755.915	34.196391
756.120	33.966927
756.325	33.580314
756.530	33.094788
756.735	32.735831
756.940	32.427611
757.146	32.245624
757.351	32.173705
757.556	32.011589
757.761	31.743147
757.966	31.527270
758.171	31.283916
758.376	30.906381
758.581	30.559021
758.786	30.272202
758.990	30.016958
759.195	29.819029
759.400	29.459275
759.605	28.907746
759.810	28.421518
760.015	28.097091
760.220	27.618758
760.424	27.253668
760.629	27.056198
760.834	26.913202
761.039	26.696595
761.244	26.439393
761.448	26.215240
761.653	26.173375
761.858	26.118674
762.062	26.024913
762.267	25.874696
762.472	25.761964
762.676	25.587122
762.881	25.360629
763.085	25.088302
763.290	24.918765
763.494	24.571861
763.699	24.233822
763.903	23.794045
764.108	23.515698
764.312	23.196298
764.517	22.917516
764.721	22.797114
764.926	22.730671
765.130	22.776986
765.335	22.802036
765.539	22.586136
765.743	22.585014
765.948	22.587649
766.152	22.634150
766.356	22.583034
766.560	22.572465
766.765	22.545175
766.969	22.471234
767.173	22.375274
767.377	22.237621
767.582	22.041493
767.786	22.079375
767.990	22.054924
768.194	21.938204
768.398	21.831573
768.602	21.810301
768.806	21.802874
769.010	21.914524
769.215	21.896805
769.419	21.831980
769.623	21.847321
769.827	21.974166
770.031	22.048848
770.234	22.097196
770.438	22.180931
770.642	22.292508
770.846	22.426102
771.050	22.469414
771.254	22.485822
771.458	22.603245
771.662	22.678543
771.866	22.768262
772.069	22.893870
772.273	22.955986
772.477	22.946364
772.681	23.022436
772.885	23.156195
773.088	23.219073
773.292	23.264188
773.496	23.268503
773.699	23.341457
773.903	23.473167
774.107	23.427814
774.310	23.432528
774.514	23.510559
774.717	23.667070
774.921	23.763407
775.124	23.868095
775.328	24.101630
775.531	24.451504
775.735	24.820026
775.938	25.071781
776.142	25.412174
776.345	25.817469
776.549	26.191326
776.752	26.585321
776.956	27.074955
777.159	27.442994
777.362	27.765325
777.566	28.046381
777.769	28.205296
777.972	28.430109
778.176	28.823077
778.379	29.262924
778.582	29.550911
778.785	29.709359
778.989	29.898652
779.192	29.932946
779.395	30.079722
779.598	30.151783
779.801	30.208958
780.004	30.375885
780.207	30.331802
780.411	30.197461
780.614	29.954959
780.817	30.005830
781.020	30.200058
781.223	30.303221
781.426	30.610448
781.629	30.972434
781.832	31.339317
782.035	31.701409
782.238	32.084277
782.440	32.637533
782.643	33.166309
782.846	33.739174
783.049	34.099366
783.252	34.443177
783.455	34.973721
783.658	35.396870
783.860	35.676961
784.063	36.145414
784.266	36.721820
784.469	37.100158
784.671	37.330847
784.874	37.526841
785.077	37.701395
785.279	38.027139
785.482	38.406919
785.685	38.572722
785.887	38.654521
786.090	38.857383
786.293	38.881870
786.495	38.852524
786.698	39.210725
786.900	39.722896
787.103	40.267237
787.305	40.816948
787.508	41.263147
787.710	41.602200
787.913	41.940800
788.115	42.293957
788.317	42.677799
788.520	43.191174
788.722	43.615721
788.924	43.766080
789.127	43.792419
789.329	43.801182
789.531	43.912153
789.734	43.974097
789.936	43.910322
790.138	44.010272
790.340	44.183919
790.543	44.271765
790.745	44.330878
790.947	44.389744
791.149	44.544362
791.351	44.874029
791.553	45.207617
791.756	45.514091
791.958	45.977650
792.160	46.617671
792.362	47.177705
792.564	47.739999
792.766	48.407517
792.968	48.803065
793.170	48.810388
793.372	48.721097
793.574	48.499335
793.776	48.222364
793.978	47.983432
794.180	47.899294
794.381	47.937574
794.583	48.122731
794.785	48.298459
794.987	48.291423
795.189	48.466059
795.391	49.061453
795.592	49.789519
795.794	50.513472
795.996	51.404568
796.198	52.269981
796.399	52.877481
796.601	53.180199
796.803	53.140757
797.004	53.136806
797.206	53.128232
797.407	53.053268
797.609	52.943526
797.811	52.756471
798.012	52.594612
798.214	52.215202
798.415	51.633480
798.617	51.255952
798.818	51.124860
799.020	51.160169
799.221	51.105695
799.423	50.983559
799.624	51.063133
799.826	51.226170
800.027	51.481619
800.228	51.927213
800.430	52.630924
800.631	53.421520
800.832	53.993785
801.034	54.410236
801.235	54.818463
801.436	55.406769
801.637	56.464944
801.839	57.451632
802.040	58.136547
802.241	58.683792
802.442	58.967684
802.643	59.181308
802.844	59.463004
803.046	59.697497
803.247	59.845890
803.448	60.032308
803.649	60.078375
803.850	59.735853
804.051	59.384318
804.252	59.357950
804.453	59.327726
804.654	59.213731
804.855	58.795139
805.056	58.370041
805.257	58.169811
805.458	58.045262
805.659	57.729501
805.859	57.350404
806.060	57.199147
806.261	57.151434
806.462	57.109451
806.663	57.281103
806.864	57.718923
807.064	58.526243
807.265	59.257089
807.466	59.837779
807.667	60.625145
807.867	61.378377
808.068	61.957070
808.269	62.507587
808.469	63.088602
808.670	63.715145
808.870	64.216180
809.071	64.547442
809.272	64.717577
809.472	64.896979
809.673	64.935788
809.873	64.700472
810.074	64.743505
810.274	65.268169
810.475	65.516380
810.675	65.538953
810.876	65.549500
811.076	65.455297
811.276	65.441721
811.477	65.568785
811.677	65.729958
811.878	65.994052
812.078	66.216359
812.278	66.357571
812.479	66.272048
812.679	66.435709
812.879	66.578719
813.079	66.355679
813.280	65.983004
813.480	65.521514
813.680	64.987539
813.880	64.553510
814.080	64.294660
814.280	64.270992
814.480	64.496452
814.681	64.674521
814.881	64.594728
815.081	64.672048
815.281	65.119097
815.481	65.672444
815.681	66.564530
815.881	67.451692
816.081	68.102355
816.281	68.517621
816.481	68.821585
816.681	68.850761
816.880	68.904025
817.080	69.060894
817.280	69.219180
817.480	69.339942
817.680	69.515365
817.880	69.576779
818.080	69.389825
818.279	69.054977
818.479	68.858298
818.679	68.826683
818.879	68.873843
819.078	68.863159
819.278	69.006601
819.478	69.195990
819.677	69.362644
819.877	69.641146
820.077	69.703021
820.276	70.060921
820.476	70.464281
820.675	70.815032
820.875	70.968114
821.074	71.026142
821.274	71.240722
821.473	71.286918
821.673	71.105224
821.872	71.165746
822.072	71.393925
822.271	71.617321
822.471	71.859136
822.670	72.433742
822.869	73.168286
823.069	73.827382
823.268	74.390836
823.467	74.773757
823.667	74.996943
823.866	75.218877
824.065	75.170729
824.265	74.787012
824.464	74.278583
824.663	73.884051
824.862	73.545701
825.061	73.235082
825.261	72.845307
825.460	72.355085
825.659	71.817560
825.858	71.750035
826.057	72.097786
826.256	72.704764
826.455	73.438163
826.654	74.223177
826.853	74.678342
827.052	74.772926
827.251	74.614698
