Date	2025年07月03日木曜日 09時47分49秒
Spectrometers	SR401765
ダーク	使用
リファレンス	使用
積分時間[msec]	300
平均回数	1
ｽﾑｰｼﾞﾝｸﾞ	5
Electrical Dark	USE
ピクセル数	3648
計測モード	反射率
保存開始波長[nm]	598.495
保存終了波長[nm]	1274.802
保存ﾋﾟｯﾁ波長[nm]	全波長

>>>>>>>>>> Data Start <<<<<<<<<<<<
598.495	99.999225
598.713	99.999225
598.931	99.999225
599.148	99.999225
599.366	0.000000
599.584	0.000000
599.802	0.000000
600.020	0.000000
600.238	0.000000
600.455	93.067227
600.673	305.399463
600.891	27.525533
601.109	26.698322
601.326	26.337165
601.544	25.841606
601.762	25.110101
601.979	24.899778
602.197	24.643673
602.415	24.450406
602.632	24.372335
602.850	24.448666
603.067	24.471311
603.285	24.617614
603.502	24.789913
603.720	24.885028
603.938	24.891285
604.155	25.044068
604.372	25.243787
604.590	25.462313
604.807	25.673423
605.025	25.791507
605.242	25.938542
605.460	26.232324
605.677	26.264221
605.894	26.160045
606.112	26.239537
606.329	26.564080
606.546	26.913189
606.764	27.030263
606.981	27.068897
607.198	27.147667
607.415	27.241013
607.633	27.430300
607.850	27.571926
608.067	27.767352
608.284	28.084850
608.501	28.426738
608.718	28.493068
608.935	28.408705
609.153	28.406859
609.370	28.634843
609.587	28.905351
609.804	29.133399
610.021	29.335509
610.238	29.502795
610.455	29.659499
610.672	29.788532
610.889	29.975829
611.106	30.227396
611.323	30.419729
611.540	30.679397
611.756	30.867748
611.973	30.997207
612.190	31.127575
612.407	31.245375
612.624	31.387910
612.841	31.593114
613.057	31.841075
613.274	31.988109
613.491	32.264573
613.708	32.618979
613.925	32.874285
614.141	32.992445
614.358	33.171022
614.575	33.483883
614.791	33.683444
615.008	33.864341
615.225	34.203702
615.441	34.372662
615.658	34.430488
615.874	34.374224
616.091	34.467941
616.307	34.780604
616.524	35.213804
616.740	35.614368
616.957	35.808270
617.173	35.975367
617.390	36.187626
617.606	36.301170
617.823	36.465470
618.039	36.529450
618.256	36.768549
618.472	37.011278
618.688	37.191408
618.905	37.400898
619.121	37.539341
619.337	37.797732
619.554	38.140807
619.770	38.441819
619.986	38.725433
620.202	38.918396
620.419	39.292166
620.635	39.536407
620.851	39.855116
621.067	40.222921
621.283	40.411514
621.499	40.507253
621.716	40.667690
621.932	40.793211
622.148	40.856142
622.364	40.927718
622.580	41.168124
622.796	41.399942
623.012	41.708208
623.228	41.939415
623.444	42.160316
623.660	42.427416
623.876	42.800294
624.092	42.988894
624.308	43.233421
624.524	43.616772
624.740	43.904586
624.955	44.138370
625.171	44.430257
625.387	44.720402
625.603	44.860789
625.819	44.886202
626.034	44.964716
626.250	45.080734
626.466	45.222935
626.682	45.415863
626.897	45.595895
627.113	45.856887
627.329	46.114427
627.544	46.222644
627.760	46.222422
627.976	46.426137
628.191	46.757087
628.407	46.984430
628.623	47.243642
628.838	47.598115
629.054	47.825422
629.269	47.970303
629.485	48.109342
629.700	48.348888
629.916	48.652719
630.131	48.991582
630.347	49.134592
630.562	49.082425
630.777	49.151173
630.993	49.240273
631.208	49.477378
631.424	49.739433
631.639	49.956495
631.854	50.196571
632.070	50.336480
632.285	50.546745
632.500	50.736100
632.715	51.001364
632.931	51.375306
633.146	51.686530
633.361	51.927428
633.576	52.041693
633.791	52.042434
634.007	52.156976
634.222	52.254105
634.437	52.434392
634.652	52.474473
634.867	52.605557
635.082	52.798237
635.297	53.043998
635.512	53.323062
635.727	53.649746
635.942	53.998072
636.157	54.524605
636.372	54.907464
636.587	55.098260
636.802	55.184454
637.017	55.296073
637.232	55.409229
637.447	55.540315
637.662	55.597347
637.876	55.611308
638.091	55.459236
638.306	55.379112
638.521	55.252242
638.736	55.116751
638.951	55.264077
639.165	55.579523
639.380	55.839035
639.595	55.887965
639.809	56.021366
640.024	56.090850
640.239	56.203323
640.453	56.625050
640.668	56.937840
640.883	57.163301
641.097	57.416146
641.312	57.582293
641.526	57.599977
641.741	57.739836
641.955	58.131432
642.170	58.342167
642.384	58.620495
642.599	58.980990
642.813	59.125718
643.028	59.222082
643.242	59.304328
643.457	59.469875
643.671	59.705588
643.885	59.889209
644.100	59.956909
644.314	59.920629
644.528	60.039642
644.743	60.330285
644.957	60.526131
645.171	60.715720
645.386	60.783886
645.600	60.994201
645.814	61.171200
646.028	61.302122
646.242	61.452532
646.457	61.714049
646.671	62.048249
646.885	62.282321
647.099	62.285498
647.313	62.295790
647.527	62.360929
647.741	62.584174
647.955	62.604679
648.169	62.550082
648.383	62.519026
648.597	62.601646
648.811	62.639106
649.025	62.691311
649.239	62.635412
649.453	62.610948
649.667	62.642959
649.881	62.671604
650.095	62.723363
650.309	62.897517
650.523	63.121435
650.737	63.210561
650.950	63.334694
651.164	63.477155
651.378	63.616116
651.592	63.822878
651.805	63.977182
652.019	64.098927
652.233	64.178540
652.447	64.311221
652.660	64.472151
652.874	64.520806
653.088	64.742066
653.301	64.904383
653.515	65.021514
653.728	65.031666
653.942	65.053902
654.156	65.182149
654.369	65.317284
654.583	65.510486
654.796	65.612352
655.010	65.571359
655.223	65.681692
655.437	65.780121
655.650	65.933538
655.863	66.320444
656.077	66.544027
656.290	66.737310
656.504	67.007487
656.717	67.165784
656.930	67.315125
657.144	67.613832
657.357	67.873834
657.570	68.070172
657.783	68.158371
657.997	68.148638
658.210	67.965155
658.423	68.035291
658.636	68.166274
658.849	68.120911
659.063	68.161292
659.276	68.097672
659.489	67.939484
659.702	67.943030
659.915	67.956232
660.128	68.034223
660.341	68.142783
660.554	68.382233
660.767	68.545225
660.980	68.617731
661.193	68.737121
661.406	68.837846
661.619	69.078290
661.832	69.228282
662.045	69.464267
662.258	69.822786
662.471	70.092935
662.684	70.288317
662.897	70.452449
663.110	70.408778
663.322	70.340825
663.535	70.237639
663.748	70.264326
663.961	70.282173
664.174	70.296920
664.386	70.183416
664.599	70.093310
664.812	70.001378
665.024	69.884702
665.237	69.626596
665.450	69.560046
665.662	69.659288
665.875	69.946438
666.088	70.201512
666.300	70.233172
666.513	70.376621
666.725	70.575094
666.938	70.715229
667.150	70.874426
667.363	71.001955
667.575	71.189644
667.788	71.504661
668.000	71.732515
668.213	71.694851
668.425	71.610081
668.638	71.688519
668.850	71.695115
669.062	71.799964
669.275	71.883700
669.487	71.907310
669.699	71.964033
669.912	72.045198
670.124	72.072096
670.336	72.193994
670.548	72.376986
670.761	72.413954
670.973	72.430033
671.185	72.639832
671.397	72.638093
671.609	72.452572
671.822	72.354030
672.034	72.350478
672.246	72.375855
672.458	72.490309
672.670	72.428498
672.882	72.391320
673.094	72.428317
673.306	72.404272
673.518	72.303470
673.730	72.369478
673.942	72.674734
674.154	72.974862
674.366	73.212813
674.578	73.502859
674.790	73.625549
675.002	73.624143
675.214	73.626531
675.425	73.797222
675.637	73.956080
675.849	73.905613
676.061	73.889365
676.273	73.830552
676.484	73.825542
676.696	73.794586
676.908	73.582478
677.120	73.529012
677.331	73.619849
677.543	73.739786
677.755	73.618665
677.966	73.569733
678.178	73.655504
678.389	73.622454
678.601	73.739111
678.813	73.722503
679.024	73.673428
679.236	73.752742
679.447	73.797492
679.659	74.024211
679.870	74.227760
680.082	74.413355
680.293	74.604079
680.505	74.689414
680.716	74.565779
680.927	74.309498
681.139	74.345883
681.350	74.435037
681.562	74.367703
681.773	74.228266
681.984	74.031362
682.196	73.809193
682.407	73.818629
682.618	73.931928
682.829	74.055790
683.041	74.426914
683.252	74.752038
683.463	74.837371
683.674	74.979714
683.885	75.312928
684.097	75.583026
684.308	75.697458
684.519	75.847300
684.730	75.868170
684.941	75.781275
685.152	75.736673
685.363	75.634913
685.574	75.581586
685.785	75.561171
685.996	75.416845
686.207	75.284586
686.418	75.214518
686.629	75.382813
686.840	75.591086
687.051	75.699990
687.262	75.716158
687.473	75.791705
687.684	75.913153
687.894	76.084663
688.105	76.268525
688.316	76.518123
688.527	76.542033
688.738	76.483842
688.948	76.213056
689.159	75.903610
689.370	75.661611
689.580	75.597019
689.791	75.653350
690.002	75.734103
690.212	75.727077
690.423	75.599234
690.634	75.322450
690.844	75.252887
691.055	75.334285
691.266	75.598472
691.476	75.838304
691.687	76.000493
691.897	76.041145
692.108	75.962191
692.318	75.945045
692.529	75.983393
692.739	76.045703
692.949	76.046327
693.160	75.902515
693.370	75.814040
693.581	75.772844
693.791	75.829528
694.001	76.014901
694.212	76.216730
694.422	76.361275
694.632	76.378473
694.843	76.391204
695.053	76.519707
695.263	76.809289
695.473	77.143410
695.683	77.337310
695.894	77.412818
696.104	77.457888
696.314	77.407861
696.524	77.388703
696.734	77.553954
696.944	77.690924
697.154	77.693673
697.365	77.398618
697.575	77.049666
697.785	76.766102
697.995	76.540536
698.205	76.370568
698.415	76.236196
698.625	76.230494
698.834	76.211543
699.044	76.116707
699.254	76.178619
699.464	76.297803
699.674	76.471949
699.884	76.722516
700.094	76.949773
700.304	77.134011
700.513	77.327959
700.723	77.450108
700.933	77.362483
701.143	77.256454
701.353	77.091592
701.562	76.887362
701.772	76.760455
701.982	76.778011
702.191	76.876613
702.401	76.979056
702.611	77.055801
702.820	77.152355
703.030	77.326438
703.239	77.615019
703.449	77.813968
703.659	77.901248
703.868	77.798098
704.078	77.771916
704.287	77.886476
704.497	77.957770
704.706	77.988536
704.916	78.125971
705.125	78.140964
705.334	77.899459
705.544	77.548768
705.753	77.265870
705.962	77.087821
706.172	76.963431
706.381	76.727940
706.590	76.594168
706.800	76.528390
707.009	76.443393
707.218	76.149509
707.428	75.831523
707.637	75.741469
707.846	75.776402
708.055	75.812712
708.264	75.836070
708.474	76.080259
708.683	76.371281
708.892	76.467620
709.101	76.515519
709.310	76.430210
709.519	76.514016
709.728	76.688580
709.937	76.822760
710.146	76.967526
710.355	77.106975
710.564	77.264867
710.773	77.249062
710.982	77.305808
711.191	77.428562
711.400	77.540941
711.609	77.732660
711.818	77.733586
712.027	77.686662
712.235	77.786303
712.444	77.902108
712.653	77.904348
712.862	77.782709
713.071	77.704333
713.279	77.551603
713.488	77.361601
713.697	77.180205
713.906	77.044350
714.114	77.171869
714.323	77.270729
714.532	77.145580
714.740	76.913444
714.949	76.849743
715.157	76.920382
715.366	76.977562
715.575	76.967011
715.783	76.944807
715.992	76.914582
716.200	76.883473
716.409	76.724045
716.617	76.616641
716.826	76.701284
717.034	76.899991
717.242	77.090915
717.451	77.237152
717.659	77.257199
717.868	77.279353
718.076	77.498661
718.284	77.699720
718.493	77.848915
718.701	77.789863
718.909	77.694954
719.118	77.513644
719.326	77.156456
719.534	76.833777
719.742	76.662385
719.951	76.644566
720.159	76.713892
720.367	76.664492
720.575	76.561349
720.783	76.431739
720.991	76.530070
721.199	76.625436
721.408	76.687988
721.616	76.946871
721.824	77.083471
722.032	77.080064
722.240	76.927221
722.448	76.736653
722.656	76.493618
722.864	76.336894
723.072	76.337857
723.280	76.220875
723.487	76.257890
723.695	76.357394
723.903	76.305279
724.111	76.253642
724.319	76.264293
724.527	76.307538
724.735	76.123778
724.942	75.967164
725.150	75.858100
725.358	75.766575
725.566	75.806920
725.773	75.816158
725.981	75.867337
726.189	76.047436
726.396	76.196907
726.604	76.185889
726.812	76.119328
727.019	76.230369
727.227	76.271550
727.435	76.356468
727.642	76.242029
727.850	76.018479
728.057	75.793525
728.265	75.509783
728.472	75.107057
728.680	74.877273
728.887	74.786079
729.095	74.845914
729.302	74.878591
729.509	74.886504
729.717	74.765289
729.924	74.782352
730.132	74.908253
730.339	74.949142
730.546	74.978164
730.753	75.230351
730.961	75.510722
731.168	75.658281
731.375	75.724408
731.583	75.735167
731.790	75.752217
731.997	75.897652
732.204	75.976954
732.411	76.016501
732.618	75.948682
732.826	75.923528
733.033	75.806485
733.240	75.548182
733.447	75.287366
733.654	74.937491
733.861	74.917112
734.068	74.981226
734.275	74.881922
734.482	74.779348
734.689	74.648265
734.896	74.615741
735.103	74.405636
735.310	74.115742
735.517	73.818451
735.724	73.678719
735.931	73.767636
736.137	73.782635
736.344	73.746043
736.551	73.741747
736.758	73.645781
736.965	73.571147
737.171	73.439907
737.378	73.325207
737.585	73.290673
737.792	73.511315
737.998	73.701339
738.205	73.824779
738.412	73.775875
738.618	73.728948
738.825	73.658854
739.032	73.695660
739.238	73.563606
739.445	73.381776
739.651	73.310269
739.858	73.363798
740.064	73.393956
740.271	73.505352
740.477	73.496772
740.684	73.316798
740.890	73.196763
741.097	73.178652
741.303	73.140116
741.510	73.184895
741.716	73.334532
741.922	73.534453
742.129	73.636283
742.335	73.683290
742.541	73.640031
742.748	73.558142
742.954	73.583846
743.160	73.508715
743.366	73.360081
743.573	73.115855
743.779	72.916730
743.985	72.778844
744.191	72.565113
744.397	72.296127
744.604	71.944467
744.810	71.635505
745.016	71.501893
745.222	71.494884
745.428	71.350818
745.634	71.198986
745.840	71.238465
746.046	71.339589
746.252	71.394141
746.458	71.342569
746.664	71.351711
746.870	71.388019
747.076	71.318616
747.282	71.409699
747.488	71.427075
747.694	71.583857
747.900	71.649785
748.105	71.637544
748.311	71.710797
748.517	71.624035
748.723	71.601182
748.929	71.504073
749.134	71.446594
749.340	71.456968
749.546	71.209383
749.752	70.942177
749.957	70.739350
750.163	70.770231
750.369	70.909775
750.574	70.884408
750.780	70.807474
750.985	70.801950
751.191	70.933029
751.397	70.988150
751.602	70.883431
751.808	70.877841
752.013	70.872507
752.219	70.755198
752.424	70.597989
752.630	70.405821
752.835	70.210356
753.041	70.207513
753.246	70.185819
753.451	70.084688
753.657	69.998709
753.862	70.035499
754.067	70.064704
754.273	70.203771
754.478	70.240438
754.683	70.234484
754.889	70.004709
755.094	69.662055
755.299	69.393003
755.504	69.154834
755.710	68.984830
755.915	68.741798
756.120	68.455393
756.325	68.234751
756.530	68.096865
756.735	68.159323
756.940	68.103931
757.146	68.179141
757.351	68.236924
757.556	68.241263
757.761	68.194607
757.966	68.110290
758.171	68.032340
758.376	67.962894
758.581	67.793084
758.786	67.574935
758.990	67.258623
759.195	67.018062
759.400	66.862850
759.605	66.770513
759.810	66.640281
760.015	66.595970
760.220	66.475501
760.424	66.366926
760.629	66.235158
760.834	66.062354
761.039	65.822431
761.244	65.685345
761.448	65.479321
761.653	65.413470
761.858	65.592234
762.062	65.690328
762.267	65.594758
762.472	65.506282
762.676	65.509033
762.881	65.390658
763.085	65.233377
763.290	65.155975
763.494	64.954810
763.699	64.832967
763.903	64.411188
764.108	63.924717
764.312	63.549423
764.517	63.351320
764.721	63.060668
764.926	62.715268
765.130	62.663141
765.335	62.738430
765.539	62.744642
765.743	62.684506
765.948	62.591166
766.152	62.662874
766.356	62.589395
766.560	62.585886
766.765	62.581798
766.969	62.567974
767.173	62.513156
767.377	62.461657
767.582	62.334958
767.786	62.199413
767.990	62.237478
768.194	62.144641
768.398	61.976213
768.602	61.886389
768.806	61.851148
769.010	61.731020
769.215	61.500478
769.419	61.304742
769.623	61.122647
769.827	60.888425
770.031	60.579663
770.234	60.341186
770.438	60.312862
770.642	60.254411
770.846	60.165268
771.050	59.935164
771.254	59.622548
771.458	59.592475
771.662	59.714213
771.866	59.601651
772.069	59.579636
772.273	59.605286
772.477	59.316314
772.681	58.994990
772.885	58.710268
773.088	58.415684
773.292	58.156522
773.496	57.953345
773.699	57.691502
773.903	57.392008
774.107	57.127058
774.310	56.722479
774.514	56.144116
774.717	55.876970
774.921	55.590451
775.124	55.289787
775.328	55.031566
775.531	54.732297
775.735	54.554550
775.938	54.395828
776.142	54.150208
776.345	53.914274
776.549	53.913164
776.752	54.195946
776.956	54.400649
777.159	54.506473
777.362	54.544597
777.566	54.581453
777.769	54.574100
777.972	54.369823
778.176	54.192012
778.379	54.048507
778.582	53.858628
778.785	53.608702
778.989	53.293135
779.192	52.924349
779.395	52.589527
779.598	52.260345
779.801	51.917815
780.004	51.564330
780.207	51.320262
780.411	50.978357
780.614	50.538540
780.817	50.209940
781.020	49.853613
781.223	49.444972
781.426	49.130611
781.629	48.912409
781.832	48.740981
782.035	48.604119
782.238	48.487397
782.440	48.284762
782.643	48.090600
782.846	48.009745
783.049	47.915544
783.252	47.785652
783.455	47.540285
783.658	47.194138
783.860	46.909891
784.063	46.654397
784.266	46.302471
784.469	45.997113
784.671	45.829748
784.874	45.586113
785.077	45.268654
785.279	44.908106
785.482	44.602157
785.685	44.368055
785.887	44.197821
786.090	43.977843
786.293	43.742651
786.495	43.570525
786.698	43.517336
786.900	43.275417
787.103	42.984464
787.305	42.713073
787.508	42.431210
787.710	42.127905
787.913	41.901623
788.115	41.607093
788.317	41.162678
788.520	40.652193
788.722	40.135947
788.924	39.489402
789.127	39.038959
789.329	38.637136
789.531	38.216782
789.734	37.956947
789.936	37.769967
790.138	37.607225
790.340	37.495389
790.543	37.394467
790.745	37.294204
790.947	37.265474
791.149	37.202207
791.351	37.013925
791.553	36.808842
791.756	36.635171
791.958	36.504249
792.160	36.248477
792.362	35.867080
792.564	35.322355
792.766	34.820482
792.968	34.409188
793.170	33.817333
793.372	33.194455
793.574	32.657363
793.776	32.291283
793.978	31.923069
794.180	31.371626
794.381	30.784332
794.583	30.332668
794.785	30.079105
794.987	29.768503
795.189	29.514246
795.391	29.330814
795.592	29.111012
795.794	28.850544
795.996	28.592157
796.198	28.321577
796.399	28.089409
796.601	27.916151
796.803	27.575029
797.004	27.156730
797.206	26.924232
797.407	26.586806
797.609	26.283337
797.811	26.026938
798.012	25.818284
798.214	25.448100
798.415	25.049339
798.617	24.761074
798.818	24.462272
799.020	24.226190
799.221	23.975891
799.423	23.545483
799.624	23.166142
799.826	22.814662
800.027	22.444282
800.228	21.979329
800.430	21.744044
800.631	21.556986
800.832	21.119732
801.034	20.799033
801.235	20.545919
801.436	20.363926
801.637	20.264751
801.839	20.175573
802.040	19.960158
802.241	19.760699
802.442	19.588382
802.643	19.284120
802.844	18.945860
803.046	18.756591
803.247	18.393626
803.448	18.075433
803.649	17.638807
803.850	17.272516
804.051	16.876545
804.252	16.532240
804.453	16.203716
804.654	15.939578
804.855	15.680221
805.056	15.432016
805.257	15.160791
805.458	14.928001
805.659	14.727520
805.859	14.568786
806.060	14.367620
806.261	14.172253
806.462	13.931840
806.663	13.756889
806.864	13.534723
807.064	13.299027
807.265	13.040685
807.466	12.807806
807.667	12.715766
807.867	12.495192
808.068	12.265773
808.269	12.019137
808.469	11.766210
808.670	11.637233
808.870	11.394784
809.071	11.279142
809.272	11.153187
809.472	11.033879
809.673	10.890020
809.873	10.634609
810.074	10.370396
810.274	10.239809
810.475	10.117371
810.675	9.982626
810.876	9.834262
811.076	9.836437
811.276	9.807431
811.477	9.733663
811.677	9.637434
811.878	9.581094
812.078	9.540264
812.278	9.493375
812.479	9.396256
812.679	9.337728
812.879	9.349075
813.079	9.259826
813.280	9.119718
813.480	8.963444
813.680	8.790563
813.880	8.756483
814.080	8.720302
814.280	8.650452
814.480	8.679559
814.681	8.660711
814.881	8.568500
815.081	8.434851
815.281	8.450560
815.481	8.395234
815.681	8.244091
815.881	8.238583
816.081	8.120160
816.281	8.102463
816.481	8.156253
816.681	8.162085
816.880	8.182408
817.080	8.178820
817.280	8.225345
817.480	8.328261
817.680	8.337746
817.880	8.402758
818.080	8.428924
818.279	8.542018
818.479	8.505854
818.679	8.565062
818.879	8.738716
819.078	8.781295
819.278	8.849456
819.478	8.887177
819.677	8.844253
819.877	8.992622
820.077	9.151489
820.276	9.367714
820.476	9.466604
820.675	9.504220
820.875	9.461697
821.074	9.490654
821.274	9.681557
821.473	9.839912
821.673	9.905246
821.872	10.049334
822.072	10.121895
822.271	10.135774
822.471	10.222637
822.670	10.351609
822.869	10.620058
823.069	10.955836
823.268	11.032198
823.467	11.093905
823.667	11.190555
823.866	11.369098
824.065	11.562982
824.265	11.799290
824.464	12.108702
824.663	12.319370
824.862	12.506878
825.061	12.687678
825.261	12.703730
825.460	12.807482
825.659	12.990678
825.858	13.208461
826.057	13.473071
826.256	13.685968
826.455	13.904314
826.654	14.159491
826.853	14.318545
827.052	14.602346
827.251	15.021952
827.450	15.398107
827.649	15.703849
827.848	15.903651
