Date	2025年07月03日木曜日 09時50分57秒
Spectrometers	SR401765
ダーク	使用
リファレンス	使用
積分時間[msec]	300
平均回数	1
ｽﾑｰｼﾞﾝｸﾞ	5
Electrical Dark	USE
ピクセル数	3648
計測モード	反射率
保存開始波長[nm]	598.495
保存終了波長[nm]	1274.802
保存ﾋﾟｯﾁ波長[nm]	全波長

>>>>>>>>>> Data Start <<<<<<<<<<<<
598.495	-9.086262
598.713	-9.086262
598.931	-9.086262
599.148	-9.086262
599.366	0.000000
599.584	0.000000
599.802	0.000000
600.020	0.000000
600.238	0.000000
600.455	-6.471872
600.673	-317.437300
600.891	44.428467
601.109	52.487258
601.326	53.171757
601.544	53.132775
601.762	53.279473
601.979	53.349588
602.197	53.196753
602.415	53.022229
602.632	52.955876
602.850	52.800129
603.067	52.667226
603.285	52.754734
603.502	52.765167
603.720	52.867399
603.938	53.141416
604.155	53.388385
604.372	53.518145
604.590	53.663872
604.807	53.893133
605.025	54.220750
605.242	54.618444
605.460	55.020229
605.677	55.165776
605.894	55.220696
606.112	55.245202
606.329	55.410216
606.546	55.644789
606.764	55.894532
606.981	56.216890
607.198	56.431946
607.415	56.304108
607.633	56.249427
607.850	56.309541
608.067	56.460806
608.284	56.559337
608.501	56.800653
608.718	56.821102
608.935	56.728839
609.153	56.731170
609.370	56.715081
609.587	56.625206
609.804	56.706684
610.021	56.759785
610.238	56.688733
610.455	56.802983
610.672	57.049129
610.889	57.316295
611.106	57.527625
611.323	57.825647
611.540	57.984060
611.756	58.093947
611.973	58.437985
612.190	58.989690
612.407	59.675492
612.624	60.219854
612.841	60.510489
613.057	60.588646
613.274	60.605998
613.491	60.751984
613.708	60.754000
613.925	60.896060
614.141	60.938432
614.358	60.887217
614.575	60.773413
614.791	60.418971
615.008	60.273833
615.225	60.393338
615.441	60.673088
615.658	60.769779
615.874	60.842086
616.091	61.073038
616.307	61.341460
616.524	61.893866
616.740	62.479252
616.957	62.651714
617.173	62.793020
617.390	63.024058
617.606	63.130809
617.823	63.065340
618.039	63.005592
618.256	63.171000
618.472	63.291907
618.688	63.342428
618.905	63.386439
619.121	63.303627
619.337	63.522501
619.554	63.861917
619.770	64.074296
619.986	64.245223
620.202	64.385359
620.419	64.507670
620.635	64.289897
620.851	64.327599
621.067	64.513003
621.283	64.479273
621.499	64.337017
621.716	64.308838
621.932	64.294622
622.148	64.509127
622.364	64.738818
622.580	65.152120
622.796	65.523165
623.012	65.988915
623.228	66.317264
623.444	66.723536
623.660	67.076119
623.876	67.300488
624.092	67.443606
624.308	67.648418
624.524	67.767616
624.740	67.696507
624.955	67.549038
625.171	67.673321
625.387	67.824602
625.603	67.656449
625.819	67.247976
626.034	67.155422
626.250	67.285070
626.466	67.517904
626.682	67.876017
626.897	68.096580
627.113	68.177211
627.329	67.993852
627.544	67.883406
627.760	68.053309
627.976	68.513042
628.191	69.085508
628.407	69.277328
628.623	69.497872
628.838	69.592867
629.054	69.542276
629.269	69.405834
629.485	69.456318
629.700	69.742735
629.916	69.885464
630.131	69.842953
630.347	69.722228
630.562	69.645055
630.777	69.803082
630.993	70.054620
631.208	70.406408
631.424	70.683207
631.639	71.062018
631.854	71.687485
632.070	72.271077
632.285	72.606020
632.500	72.794332
632.715	72.932962
632.931	72.940803
633.146	73.027854
633.361	73.219582
633.576	73.252333
633.791	73.127895
634.007	73.012907
634.222	72.706342
634.437	72.459633
634.652	72.385918
634.867	72.429228
635.082	72.516193
635.297	72.908438
635.512	73.252622
635.727	73.251643
635.942	73.125807
636.157	73.150540
636.372	73.383807
636.587	73.794868
636.802	74.190638
637.017	74.620378
637.232	75.050561
637.447	75.470906
637.662	75.412209
637.876	75.346488
638.091	75.192848
638.306	75.005322
638.521	75.050769
638.736	74.992116
638.951	74.711048
639.165	74.424945
639.380	74.058346
639.595	73.521380
639.809	73.070018
640.024	72.844801
640.239	72.540781
640.453	72.723184
640.668	73.217860
640.883	73.404619
641.097	73.531519
641.312	73.794270
641.526	74.020415
641.741	74.346682
641.955	74.919309
642.170	75.517902
642.384	75.956889
642.599	76.271106
642.813	76.347963
643.028	76.250263
643.242	76.273924
643.457	76.401576
643.671	76.742966
643.885	77.109168
644.100	77.173466
644.314	76.974019
644.528	76.696138
644.743	76.619224
644.957	76.667826
645.171	76.792335
645.386	76.952883
645.600	77.334879
645.814	77.565216
646.028	77.527051
646.242	77.419852
646.457	77.314843
646.671	77.163468
646.885	77.116651
647.099	77.201770
647.313	77.495088
647.527	77.850711
647.741	78.173795
647.955	78.361951
648.169	78.461935
648.383	78.334357
648.597	78.180561
648.811	78.352339
649.025	78.786378
649.239	78.912841
649.453	78.754079
649.667	78.543785
649.881	78.253486
650.095	78.103694
650.309	77.871652
650.523	77.553866
650.737	77.290458
650.950	77.180626
651.164	77.111789
651.378	77.001245
651.592	76.996344
651.805	76.945788
652.019	76.645470
652.233	76.405348
652.447	76.160040
652.660	75.908000
652.874	75.921327
653.088	76.211191
653.301	76.392922
653.515	76.517186
653.728	76.504018
653.942	76.475557
654.156	76.662474
654.369	77.035018
654.583	77.249793
654.796	77.261310
655.010	77.200019
655.223	77.103869
655.437	77.026200
655.650	77.153437
655.863	77.124418
656.077	77.052508
656.290	77.028783
656.504	76.921005
656.717	76.983381
656.930	77.220991
657.144	77.536622
657.357	77.849301
657.570	77.982908
657.783	78.059612
657.997	78.155108
658.210	78.453858
658.423	78.925386
658.636	79.496827
658.849	79.870514
659.063	79.944416
659.276	80.011183
659.489	80.073066
659.702	80.067453
659.915	80.163670
660.128	80.306919
660.341	80.362494
660.554	80.396270
660.767	80.202596
660.980	79.762316
661.193	79.523608
661.406	79.426865
661.619	79.252210
661.832	79.319168
662.045	79.494937
662.258	79.451275
662.471	79.234059
662.684	78.950654
662.897	78.607117
663.110	78.387693
663.322	78.611988
663.535	79.022241
663.748	79.356872
663.961	79.574239
664.174	79.561106
664.386	79.652756
664.599	80.036809
664.812	80.497228
665.024	81.051205
665.237	81.277591
665.450	81.417811
665.662	81.525626
665.875	81.407595
666.088	81.215989
666.300	81.128997
666.513	81.073230
666.725	80.896009
666.938	80.965588
667.150	80.880144
667.363	80.494863
667.575	80.478347
667.788	80.719943
668.000	80.915468
668.213	81.059833
668.425	81.080369
668.638	81.067264
668.850	81.125468
669.062	81.319192
669.275	81.390987
669.487	81.539951
669.699	81.831414
669.912	82.247102
670.124	82.554824
670.336	82.641593
670.548	82.908485
670.761	83.378278
670.973	83.711563
671.185	83.658176
671.397	83.247649
671.609	82.729943
671.822	82.486854
672.034	82.410883
672.246	82.080298
672.458	81.614555
672.670	81.186333
672.882	80.709707
673.094	80.280163
673.306	79.933936
673.518	79.858237
673.730	80.072425
673.942	80.184866
674.154	80.169069
674.366	80.055238
674.578	80.043452
674.790	80.249104
675.002	80.300281
675.214	80.102729
675.425	80.005176
675.637	80.039527
675.849	80.263234
676.061	80.394213
676.273	80.382986
676.484	80.595310
676.696	81.250081
676.908	82.019131
677.120	82.297499
677.331	82.602460
677.543	83.088276
677.755	83.286712
677.966	83.480832
678.178	83.694306
678.389	83.778619
678.601	83.921621
678.813	83.841998
679.024	83.252590
679.236	82.562097
679.447	82.252292
679.659	81.945466
679.870	81.461781
680.082	81.077670
680.293	80.538691
680.505	79.843361
680.716	79.652213
680.927	79.804868
681.139	79.978562
681.350	80.292275
681.562	80.424176
681.773	80.470264
681.984	80.624064
682.196	80.955380
682.407	81.334436
682.618	81.739226
682.829	82.064775
683.041	82.252983
683.252	82.468928
683.463	82.553211
683.674	82.357310
683.885	82.101822
684.097	81.894381
684.308	81.809085
684.519	81.690474
684.730	81.610847
684.941	81.865811
685.152	82.468043
685.363	82.946428
685.574	82.774211
685.785	82.297831
685.996	82.133377
686.207	82.377606
686.418	82.843689
686.629	83.200000
686.840	83.509588
687.051	83.670427
687.262	83.590661
687.473	83.433804
687.684	83.173704
687.894	83.114401
688.105	83.410248
688.316	83.685838
688.527	83.551860
688.738	83.078022
688.948	82.672452
689.159	82.497164
689.370	82.363994
689.580	82.382855
689.791	82.419820
690.002	82.428266
690.212	82.610283
690.423	82.664003
690.634	82.433919
690.844	82.446339
691.055	82.897990
691.266	83.170355
691.476	83.060030
691.687	82.906294
691.897	82.587724
692.108	82.092542
692.318	81.744687
692.529	81.305243
692.739	80.775222
692.949	80.458467
693.160	80.127448
693.370	79.736841
693.581	79.615095
693.791	79.667007
694.001	79.734527
694.212	79.913038
694.422	80.340159
694.632	80.730856
694.843	81.093590
695.053	81.610598
695.263	82.171611
695.473	82.846241
695.683	83.361758
695.894	83.463690
696.104	83.471989
696.314	83.615411
696.524	83.896177
696.734	84.175368
696.944	84.354226
697.154	84.249598
697.365	83.803071
697.575	83.462674
697.785	83.058455
697.995	82.513141
698.205	82.622936
698.415	83.373752
698.625	84.003379
698.834	83.981072
699.044	83.428368
699.254	82.978765
699.464	82.831954
699.674	82.852646
699.884	82.842009
700.094	82.960221
700.304	83.272988
700.513	83.045749
700.723	82.121219
700.933	81.434840
701.143	81.269611
701.353	81.299564
701.562	81.461772
701.772	81.712700
701.982	81.663184
702.191	81.310067
702.401	81.028929
702.611	80.776761
702.820	80.835447
703.030	81.107311
703.239	81.149182
703.449	81.014387
703.659	80.920675
703.868	80.599283
704.078	80.560670
704.287	81.170736
704.497	81.959549
704.706	82.279900
704.916	82.349216
705.125	82.291219
705.334	82.274034
705.544	82.081369
705.753	81.788661
705.962	81.692831
706.172	81.647725
706.381	81.180931
706.590	80.440587
706.800	79.768755
707.009	79.457357
707.218	79.326580
707.428	79.198816
707.637	79.122474
707.846	79.244753
708.055	79.400882
708.264	79.409091
708.474	79.415141
708.683	79.382712
708.892	79.385908
709.101	79.398532
709.310	79.287288
709.519	79.236675
709.728	79.305937
709.937	79.324684
710.146	79.359979
710.355	79.277629
710.564	79.119099
710.773	79.222117
710.982	79.881227
711.191	80.872322
711.400	81.729280
711.609	82.163158
711.818	82.372650
712.027	82.339806
712.235	82.263366
712.444	82.100596
712.653	81.873040
712.862	81.864903
713.071	81.700842
713.279	81.202449
713.488	80.608170
713.697	80.037829
713.906	79.721017
714.114	79.493750
714.323	79.176733
714.532	78.854859
714.740	78.720977
714.949	78.756473
715.157	78.484592
715.366	78.229947
715.575	78.127650
715.783	77.984789
715.992	78.010396
716.200	78.146916
716.409	78.199764
716.617	78.617055
716.826	79.089065
717.034	79.197392
717.242	79.327318
717.451	79.787486
717.659	80.255535
717.868	80.405240
718.076	80.362226
718.284	80.064095
718.493	79.582734
718.701	79.166438
718.909	78.865229
719.118	78.580190
719.326	78.378344
719.534	78.177782
719.742	77.708133
719.951	76.998634
720.159	76.721543
720.367	76.692613
720.575	76.647162
720.783	76.850168
720.991	77.181611
721.199	77.144944
721.408	76.855494
721.616	76.659461
721.824	76.778762
722.032	77.212106
722.240	77.690491
722.448	77.938531
722.656	78.099577
722.864	78.364131
723.072	78.460429
723.280	78.312271
723.487	78.105376
723.695	77.989955
723.903	77.921453
724.111	77.626516
724.319	77.202869
724.527	76.973470
724.735	76.804067
724.942	76.541142
725.150	76.190128
725.358	76.023910
725.566	76.122100
725.773	76.443365
725.981	76.745782
726.189	76.949352
726.396	77.136508
726.604	77.297084
726.812	77.336203
727.019	77.278528
727.227	77.280388
727.435	77.490120
727.642	77.525451
727.850	77.280129
728.057	76.776525
728.265	76.331196
728.472	76.151341
728.680	76.160810
728.887	76.064012
729.095	75.830207
729.302	75.625848
729.509	75.433224
729.717	75.216304
729.924	75.244210
730.132	75.465660
730.339	75.591619
730.546	75.659424
730.753	75.722122
730.961	75.678685
731.168	75.589017
731.375	75.785510
731.583	75.851683
731.790	75.788292
731.997	75.792371
732.204	75.648455
732.411	75.378115
732.618	75.317139
732.826	75.457156
733.033	75.435975
733.240	75.295061
733.447	75.153105
733.654	74.768320
733.861	74.442150
734.068	74.029140
734.275	73.620609
734.482	73.299053
734.689	73.100427
734.896	73.162221
735.103	73.372746
735.310	73.635802
735.517	73.841483
735.724	74.124837
735.931	74.465266
736.137	74.788134
736.344	75.318745
736.551	75.758889
736.758	75.813211
736.965	75.645264
737.171	75.023993
737.378	74.049128
737.585	73.124308
737.792	72.495195
737.998	72.112465
738.205	71.951386
738.412	71.706277
738.618	71.191069
738.825	70.343726
739.032	69.673839
739.238	69.215853
739.445	68.981533
739.651	68.896092
739.858	68.950454
740.064	68.986849
740.271	68.651523
740.477	68.008345
740.684	67.397506
740.890	66.806668
741.097	66.519782
741.303	66.534390
741.510	66.577538
741.716	66.647823
741.922	66.880995
742.129	67.028445
742.335	67.000982
742.541	66.908972
742.748	66.792145
742.954	67.018081
743.160	67.543481
743.366	67.931279
743.573	68.068568
743.779	67.956599
743.985	67.740783
744.191	67.440084
744.397	67.368789
744.604	67.565599
744.810	67.880164
745.016	68.049627
745.222	67.903622
745.428	67.651540
745.634	67.480970
745.840	67.115473
746.046	66.607961
746.252	66.071857
746.458	65.442288
746.664	64.627750
746.870	63.724088
747.076	63.071484
747.282	62.865875
747.488	62.660712
747.694	62.476599
747.900	62.238119
748.105	62.159594
748.311	62.417136
748.517	62.692162
748.723	62.985646
748.929	63.212548
749.134	63.378303
749.340	63.430858
749.546	63.469187
749.752	63.663876
749.957	63.842900
750.163	64.019544
750.369	64.137776
750.574	64.137121
750.780	63.921327
750.985	63.763143
751.191	63.644104
751.397	63.498126
751.602	63.261417
751.808	62.806372
752.013	62.185645
752.219	61.643014
752.424	61.270185
752.630	60.940549
752.835	60.480595
753.041	60.238709
753.246	59.883530
753.451	59.377452
753.657	58.871407
753.862	58.492142
754.067	58.355933
754.273	58.353842
754.478	58.210837
754.683	57.987580
754.889	57.611659
755.094	57.339757
755.299	57.247794
755.504	57.120819
755.710	56.968233
755.915	56.966786
756.120	56.930028
756.325	56.642510
756.530	56.209554
756.735	55.764901
756.940	55.400465
757.146	55.352524
757.351	55.403637
757.556	55.216106
757.761	55.040557
757.966	54.969774
758.171	54.443520
758.376	53.807824
758.581	53.344355
758.786	53.057122
758.990	52.874640
759.195	52.676588
759.400	52.288437
759.605	51.595003
759.810	50.964057
760.015	50.511371
760.220	50.050278
760.424	49.887126
760.629	49.767633
760.834	49.687438
761.039	49.453253
761.244	49.114351
761.448	48.749836
761.653	48.523549
761.858	48.595809
762.062	48.723229
762.267	48.661021
762.472	48.447626
762.676	48.222812
762.881	48.009615
763.085	47.618288
763.290	47.250276
763.494	46.780450
763.699	46.357620
763.903	45.901325
764.108	45.343997
764.312	44.720105
764.517	44.182721
764.721	43.871619
764.926	43.573413
765.130	43.203898
765.335	42.893945
765.539	42.528317
765.743	42.146968
765.948	41.925999
766.152	41.699976
766.356	41.381300
766.560	41.169409
766.765	40.830083
766.969	40.332833
767.173	39.871226
767.377	39.434708
767.582	38.959105
767.786	38.646335
767.990	38.495577
768.194	38.107191
768.398	37.763851
768.602	37.597022
768.806	37.246563
769.010	36.925706
769.215	36.631555
769.419	36.382035
769.623	36.239969
769.827	36.052415
770.031	35.613560
770.234	35.173879
770.438	34.837480
770.642	34.458530
770.846	33.977859
771.050	33.546256
771.254	33.096780
771.458	32.844641
771.662	32.446733
771.866	32.045018
772.069	31.665091
772.273	31.313818
772.477	30.901439
772.681	30.541548
772.885	30.088004
773.088	29.559936
773.292	29.020226
773.496	28.579485
773.699	28.077664
773.903	27.629535
774.107	27.038260
774.310	26.484396
774.514	26.071943
774.717	25.700122
774.921	25.293591
775.124	24.947684
775.328	24.622011
775.531	24.398133
775.735	24.309295
775.938	24.126352
776.142	23.786662
776.345	23.608007
776.549	23.433050
776.752	23.250265
776.956	23.174222
777.159	22.916790
777.362	22.589749
777.566	22.378321
777.769	22.086968
777.972	21.707180
778.176	21.288151
778.379	20.995493
778.582	20.729196
778.785	20.567463
778.989	20.289187
779.192	19.928794
779.395	19.615068
779.598	19.262099
779.801	18.930176
780.004	18.686508
780.207	18.323646
780.411	17.943352
780.614	17.638012
780.817	17.329405
781.020	16.827392
781.223	16.540472
781.426	16.262140
781.629	15.999038
781.832	15.921985
782.035	15.767525
782.238	15.542563
782.440	15.350448
782.643	15.232569
782.846	15.082228
783.049	14.800829
783.252	14.665999
783.455	14.505658
783.658	14.273309
783.860	14.075328
784.063	13.830845
784.266	13.633626
784.469	13.559246
784.671	13.409807
784.874	13.188826
785.077	12.983911
785.279	12.747500
785.482	12.509889
785.685	12.280747
785.887	12.110868
786.090	12.000431
786.293	11.837577
786.495	11.701918
786.698	11.564823
786.900	11.553447
787.103	11.569461
787.305	11.612957
787.508	11.735550
787.710	11.817837
787.913	11.781082
788.115	11.762659
788.317	11.769082
788.520	11.819917
788.722	11.882650
788.924	11.836176
789.127	11.761722
789.329	11.744408
789.531	11.662102
789.734	11.545508
789.936	11.435370
790.138	11.345414
790.340	11.227307
790.543	11.153955
790.745	11.100177
790.947	11.084362
791.149	11.201144
791.351	11.269719
791.553	11.235738
791.756	11.231156
791.958	11.304699
792.160	11.514890
792.362	11.758491
792.564	11.916777
792.766	11.933235
792.968	12.024539
793.170	12.076789
793.372	12.026172
793.574	12.023861
793.776	12.079281
793.978	12.166922
794.180	12.249791
794.381	12.304243
794.583	12.282073
794.785	12.458541
794.987	12.723861
795.189	12.940211
795.391	13.095641
795.592	13.287723
795.794	13.499028
795.996	13.819786
796.198	14.079577
796.399	14.364216
796.601	14.584594
796.803	14.845628
797.004	14.984993
797.206	15.085867
797.407	15.179955
797.609	15.210978
797.811	15.248229
798.012	15.312486
798.214	15.241208
798.415	15.241477
798.617	15.354466
798.818	15.494015
799.020	15.762384
799.221	15.991431
799.423	16.081750
799.624	16.241923
799.826	16.518006
800.027	16.792746
800.228	17.107079
800.430	17.475592
800.631	17.742653
800.832	17.852318
801.034	18.072235
801.235	18.324843
801.436	18.654897
801.637	19.231719
801.839	19.726131
802.040	20.226504
802.241	20.721150
802.442	21.145445
802.643	21.551181
802.844	21.943702
803.046	22.354715
803.247	22.534801
803.448	22.729685
803.649	23.064581
803.850	23.307710
804.051	23.493625
804.252	23.650545
804.453	23.779620
804.654	23.925134
804.855	24.139986
805.056	24.417722
805.257	24.594121
805.458	24.877853
805.659	25.061639
805.859	25.098889
806.060	25.074814
806.261	25.156461
806.462	25.301410
806.663	25.647914
806.864	26.007984
807.064	26.423347
807.265	26.777497
807.466	27.240249
807.667	27.781772
807.867	28.305003
808.068	28.792680
808.269	29.320071
808.469	29.677734
808.670	30.042937
808.870	30.301431
809.071	30.572149
809.272	30.733243
809.472	30.950678
809.673	31.136391
809.873	31.302702
810.074	31.458138
810.274	31.689889
810.475	31.950312
810.675	32.316459
810.876	32.661111
811.076	32.999749
811.276	33.381150
811.477	33.797764
811.677	34.193319
811.878	34.646772
812.078	35.065720
812.278	35.356859
812.479	35.579302
812.679	35.921995
812.879	36.216103
813.079	36.317606
813.280	36.357700
813.480	36.332178
813.680	36.144599
813.880	36.097108
814.080	36.035173
814.280	36.134106
814.480	36.534052
814.681	36.835522
814.881	36.902851
815.081	37.170986
815.281	37.742698
815.481	38.187415
815.681	38.702432
815.881	39.459835
816.081	40.124532
816.281	40.707388
816.481	41.099808
816.681	41.304255
816.880	41.625669
817.080	41.962705
817.280	42.141467
817.480	42.212886
817.680	42.302859
817.880	42.381409
818.080	42.201700
818.279	42.165135
818.479	42.136704
818.679	42.146263
818.879	42.357069
819.078	42.598600
819.278	42.884966
819.478	43.161844
819.677	43.512188
819.877	44.020215
820.077	44.473152
820.276	45.094161
820.476	45.596999
820.675	46.095189
820.875	46.491076
821.074	46.752674
821.274	46.872179
821.473	47.149947
821.673	47.397154
821.872	47.637922
822.072	47.957356
822.271	48.398634
822.471	48.956857
822.670	49.288263
822.869	49.503079
823.069	49.779181
823.268	50.022344
823.467	50.385807
823.667	50.460984
823.866	50.599225
824.065	50.626261
824.265	50.446756
824.464	49.959696
824.663	49.356279
824.862	49.101572
825.061	49.199900
825.261	49.025718
825.460	48.840763
825.659	48.603860
825.858	48.625391
826.057	49.037396
826.256	49.589922
826.455	50.095975
826.654	50.761522
826.853	51.328382
827.052	51.723733
827.251	51.939811
