Date	2025年07月03日木曜日 09時50分14秒
Spectrometers	SR401765
ダーク	使用
リファレンス	使用
積分時間[msec]	300
平均回数	1
ｽﾑｰｼﾞﾝｸﾞ	5
Electrical Dark	USE
ピクセル数	3648
計測モード	反射率
保存開始波長[nm]	598.495
保存終了波長[nm]	1274.802
保存ﾋﾟｯﾁ波長[nm]	全波長

>>>>>>>>>> Data Start <<<<<<<<<<<<
598.495	-82.781870
598.713	-82.781870
598.931	-82.781870
599.148	-82.781870
599.366	0.000000
599.584	0.000000
599.802	0.000000
600.020	0.000000
600.238	0.000000
600.455	72.544518
600.673	494.996804
600.891	46.001181
601.109	41.900773
601.326	42.454781
601.544	42.648412
601.762	42.260544
601.979	41.935013
602.197	41.696975
602.415	41.798837
602.632	41.925546
602.850	41.944861
603.067	41.957527
603.285	42.002942
603.502	42.128930
603.720	42.173988
603.938	42.324780
604.155	42.590528
604.372	42.859565
604.590	43.193957
604.807	43.491033
605.025	43.631297
605.242	43.829996
605.460	44.017867
605.677	44.133323
605.894	44.256673
606.112	44.430617
606.329	44.695976
606.546	45.011562
606.764	45.225108
606.981	45.355059
607.198	45.420160
607.415	45.496105
607.633	45.552096
607.850	45.656593
608.067	45.793438
608.284	45.951260
608.501	46.151176
608.718	46.087637
608.935	46.114595
609.153	46.141348
609.370	46.247279
609.587	46.391814
609.804	46.644091
610.021	46.920123
610.238	47.001853
610.455	47.137858
610.672	47.231435
610.889	47.328941
611.106	47.489388
611.323	47.572049
611.540	47.586317
611.756	47.669243
611.973	47.947062
612.190	48.258404
612.407	48.601192
612.624	49.080171
612.841	49.261112
613.057	49.318774
613.274	49.468096
613.491	49.658428
613.708	49.899752
613.925	50.244134
614.141	50.287677
614.358	50.320309
614.575	50.423903
614.791	50.313632
615.008	50.008405
615.225	50.018935
615.441	50.246262
615.658	50.290084
615.874	50.271453
616.091	50.234413
616.307	50.304781
616.524	50.591654
616.740	50.804665
616.957	50.934171
617.173	51.118390
617.390	51.518475
617.606	51.876071
617.823	52.107282
618.039	52.311702
618.256	52.692517
618.472	53.089208
618.688	53.346661
618.905	53.611957
619.121	53.767062
619.337	53.840645
619.554	54.141876
619.770	54.267192
619.986	54.398916
620.202	54.607709
620.419	54.680238
620.635	54.633621
620.851	54.731680
621.067	54.956503
621.283	55.066831
621.499	55.155599
621.716	55.480830
621.932	55.621628
622.148	55.712869
622.364	55.947329
622.580	56.196499
622.796	56.536779
623.012	56.907296
623.228	57.119075
623.444	57.365318
623.660	57.694406
623.876	57.928407
624.092	57.865071
624.308	58.091261
624.524	58.615995
624.740	58.873373
624.955	58.968556
625.171	59.172189
625.387	59.447168
625.603	59.664735
625.819	59.694634
626.034	59.632222
626.250	59.683619
626.466	60.046572
626.682	60.420863
626.897	60.439070
627.113	60.446099
627.329	60.473937
627.544	60.503044
627.760	60.544903
627.976	60.553747
628.191	60.748890
628.407	60.911160
628.623	61.102319
628.838	61.186672
629.054	61.131915
629.269	61.252741
629.485	61.429908
629.700	61.751770
629.916	62.090708
630.131	62.301059
630.347	62.609532
630.562	62.871041
630.777	63.236962
630.993	63.600009
631.208	63.918123
631.424	64.028607
631.639	64.188892
631.854	64.446702
632.070	64.643321
632.285	64.779810
632.500	64.922173
632.715	65.088270
632.931	65.263209
633.146	65.632551
633.361	65.921182
633.576	66.069395
633.791	66.272425
634.007	66.392863
634.222	66.380211
634.437	66.422808
634.652	66.457787
634.867	66.455651
635.082	66.422550
635.297	66.410226
635.512	66.255963
635.727	66.008995
635.942	65.671662
636.157	65.551546
636.372	65.674304
636.587	65.917247
636.802	66.052385
637.017	66.152895
637.232	66.251475
637.447	66.387839
637.662	66.455380
637.876	66.528702
638.091	66.738588
638.306	67.019779
638.521	67.266178
638.736	67.318521
638.951	67.339640
639.165	67.463379
639.380	67.326332
639.595	67.157804
639.809	67.139030
640.024	67.297956
640.239	67.478611
640.453	67.755755
640.668	68.041034
640.883	68.048781
641.097	68.197274
641.312	68.502661
641.526	68.782454
641.741	69.393122
641.955	70.223311
642.170	70.646390
642.384	70.671171
642.599	70.500795
642.813	70.394480
643.028	70.493405
643.242	70.611243
643.457	70.641670
643.671	70.719011
643.885	70.757945
644.100	70.648345
644.314	70.326623
644.528	70.211756
644.743	70.501751
644.957	70.674807
645.171	70.604887
645.386	70.494246
645.600	70.805559
645.814	71.073385
646.028	71.108727
646.242	70.884802
646.457	70.692708
646.671	70.564059
646.885	70.488795
647.099	70.539877
647.313	71.063781
647.527	71.650620
647.741	72.041752
647.955	72.170788
648.169	72.229573
648.383	72.095923
648.597	72.363725
648.811	72.841521
649.025	73.375245
649.239	73.832983
649.453	73.739092
649.667	73.350237
649.881	73.046342
650.095	72.885589
650.309	72.856125
650.523	72.766916
650.737	72.656314
650.950	72.341108
651.164	71.982228
651.378	71.759227
651.592	71.466294
651.805	71.267255
652.019	71.073019
652.233	70.874727
652.447	70.729800
652.660	70.561419
652.874	70.632597
653.088	71.001505
653.301	71.411918
653.515	71.729012
653.728	71.774751
653.942	71.855289
654.156	72.252207
654.369	72.793086
654.583	73.088501
654.796	73.203157
655.010	73.163961
655.223	73.141928
655.437	73.008908
655.650	72.945412
655.863	72.989403
656.077	73.168209
656.290	73.415073
656.504	73.490909
656.717	73.577798
656.930	73.871849
657.144	74.138304
657.357	74.287892
657.570	74.197533
657.783	74.249850
657.997	74.443273
658.210	74.517135
658.423	74.578381
658.636	74.832756
658.849	75.076448
659.063	75.099990
659.276	75.302851
659.489	75.729286
659.702	76.048225
659.915	76.242274
660.128	76.353484
660.341	76.284437
660.554	76.477295
660.767	76.571689
660.980	76.280130
661.193	76.124414
661.406	76.074288
661.619	75.903342
661.832	75.732772
662.045	75.848663
662.258	76.202624
662.471	76.522345
662.684	76.798203
662.897	76.797468
663.110	76.684361
663.322	76.846678
663.535	76.936597
663.748	76.884841
663.961	76.876824
664.174	76.987513
664.386	76.927393
664.599	76.767670
664.812	76.827726
665.024	77.062981
665.237	77.097854
665.450	77.232727
665.662	77.461164
665.875	77.697557
666.088	78.069648
666.300	78.246744
666.513	78.150595
666.725	78.071082
666.938	78.365540
667.150	78.446981
667.363	78.189929
667.575	78.208888
667.788	78.420535
668.000	78.541054
668.213	78.463841
668.425	78.147428
668.638	77.890219
668.850	77.764457
669.062	77.804461
669.275	77.861616
669.487	78.002134
669.699	78.005189
669.912	77.930085
670.124	77.820412
670.336	77.701799
670.548	77.861967
670.761	78.311077
670.973	78.961252
671.185	79.381360
671.397	79.540966
671.609	79.278514
671.822	78.921783
672.034	78.959500
672.246	79.176957
672.458	79.337250
672.670	79.239673
672.882	79.002707
673.094	78.679723
673.306	78.275522
673.518	78.190578
673.730	78.145546
673.942	78.037264
674.154	77.926290
674.366	77.779605
674.578	77.665355
674.790	77.619630
675.002	77.670356
675.214	77.741266
675.425	77.872424
675.637	77.949025
675.849	77.903009
676.061	78.006015
676.273	78.234448
676.484	78.500089
676.696	78.916424
676.908	79.132583
677.120	79.175157
677.331	79.258886
677.543	79.444319
677.755	79.407500
677.966	79.285951
678.178	79.365108
678.389	79.688206
678.601	80.043302
678.813	80.182266
679.024	79.980170
679.236	79.886502
679.447	80.133694
679.659	80.630276
679.870	80.767291
680.082	80.738411
680.293	80.587668
680.505	80.307155
680.716	79.954089
680.927	79.799573
681.139	80.095440
681.350	80.505555
681.562	80.675054
681.773	80.446799
681.984	80.060420
682.196	79.760681
682.407	79.844782
682.618	80.179296
682.829	80.182649
683.041	79.961448
683.252	79.756789
683.463	79.538602
683.674	79.545725
683.885	79.644645
684.097	79.742910
684.308	79.896612
684.519	80.120956
684.730	80.091484
684.941	80.089002
685.152	80.553487
685.363	81.064700
685.574	81.007431
685.785	80.527017
685.996	79.997687
686.207	79.882392
686.418	80.071329
686.629	80.271562
686.840	80.407808
687.051	80.589787
687.262	80.602573
687.473	80.415069
687.684	80.295552
687.894	80.449103
688.105	80.749144
688.316	80.925877
688.527	80.592944
688.738	80.007359
688.948	79.307614
689.159	78.770099
689.370	78.403616
689.580	78.263026
689.791	78.432662
690.002	78.478936
690.212	78.500577
690.423	78.492873
690.634	78.558752
690.844	79.058253
691.055	79.646079
691.266	80.025359
691.476	80.245291
691.687	80.380823
691.897	80.309584
692.108	79.923380
692.318	79.681232
692.529	79.593355
692.739	79.443278
692.949	79.272680
693.160	78.989839
693.370	78.767042
693.581	78.741998
693.791	78.923442
694.001	79.359492
694.212	80.141695
694.422	80.975076
694.632	81.578419
694.843	82.086299
695.053	82.786384
695.263	83.169503
695.473	83.308150
695.683	83.403118
695.894	83.375746
696.104	83.286532
696.314	83.020147
696.524	82.442244
696.734	81.900961
696.944	81.701058
697.154	81.496529
697.365	81.058311
697.575	80.922841
697.785	80.818826
697.995	80.641035
698.205	80.669708
698.415	80.802289
698.625	80.790410
698.834	80.584684
699.044	80.407109
699.254	80.273814
699.464	80.091026
699.674	79.926853
699.884	79.667940
700.094	79.650153
700.304	79.899442
700.513	79.897014
700.723	79.547379
700.933	79.428118
701.143	79.604921
701.353	79.743660
701.562	79.812576
701.772	79.831322
701.982	79.662791
702.191	79.253365
702.401	78.829801
702.611	78.334767
702.820	78.295684
703.030	78.547223
703.239	78.665775
703.449	78.568488
703.659	78.214723
703.868	77.700529
704.078	77.686641
704.287	78.125226
704.497	78.869495
704.706	79.357857
704.916	79.440175
705.125	79.177358
705.334	79.036031
705.544	78.789539
705.753	78.477331
705.962	78.495092
706.172	78.485120
706.381	78.136434
706.590	77.770553
706.800	77.427449
707.009	77.395112
707.218	77.621347
707.428	77.702992
707.637	77.505505
707.846	77.492978
708.055	77.759686
708.264	77.888285
708.474	78.136954
708.683	78.357734
708.892	78.343693
709.101	78.312031
709.310	78.145301
709.519	78.283152
709.728	78.654439
709.937	78.969894
710.146	79.036673
710.355	78.846683
710.564	78.761295
710.773	78.916770
710.982	79.234301
711.191	79.752006
711.400	80.437947
711.609	81.000571
711.818	80.987261
712.027	80.683008
712.235	80.464682
712.444	80.479963
712.653	80.512208
712.862	80.473510
713.071	80.250038
713.279	80.039544
713.488	79.949046
713.697	79.704200
713.906	79.464954
714.114	79.576145
714.323	79.796506
714.532	79.970448
714.740	79.933662
714.949	79.801563
715.157	79.466978
715.366	79.083225
715.575	78.686532
715.783	78.562539
715.992	78.646248
716.200	78.516607
716.409	78.239278
716.617	78.318306
716.826	78.547935
717.034	78.758869
717.242	79.062222
717.451	79.539916
717.659	79.917850
717.868	80.030664
718.076	79.616357
718.284	78.950159
718.493	78.521599
718.701	78.354857
718.909	78.152706
719.118	77.682440
719.326	77.203482
719.534	76.947009
719.742	76.823095
719.951	76.692085
720.159	76.830164
720.367	77.269310
720.575	77.639409
720.783	77.872666
720.991	78.087047
721.199	78.183325
721.408	78.243877
721.616	78.497739
721.824	78.686538
722.032	78.902043
722.240	79.135896
722.448	79.072335
722.656	78.745520
722.864	78.574462
723.072	78.583863
723.280	78.160041
723.487	77.590420
723.695	77.317747
723.903	77.010822
724.111	76.671023
724.319	76.238747
724.527	75.741157
724.735	75.291295
724.942	75.031794
725.150	74.940367
725.358	74.972740
725.566	75.466081
725.773	75.962253
725.981	76.199745
726.189	76.306393
726.396	76.389528
726.604	76.508390
726.812	76.743455
727.019	77.155568
727.227	77.395729
727.435	77.514776
727.642	77.419317
727.850	76.919735
728.057	76.345684
728.265	75.979555
728.472	75.817328
728.680	75.787328
728.887	75.600671
729.095	75.287555
729.302	75.032213
729.509	74.867064
729.717	74.519149
729.924	74.318452
730.132	74.335956
730.339	74.443689
730.546	74.584759
730.753	74.908231
730.961	75.099161
731.168	75.274537
731.375	75.498653
731.583	75.440970
731.790	75.156985
731.997	75.129963
732.204	75.088740
732.411	74.959776
732.618	74.864655
732.826	74.806581
733.033	74.605191
733.240	74.503634
733.447	74.320484
733.654	74.063623
733.861	74.100487
734.068	74.262544
734.275	74.338896
734.482	74.449312
734.689	74.654104
734.896	75.026995
735.103	75.385962
735.310	75.702971
735.517	75.873075
735.724	76.078804
735.931	76.253148
736.137	76.277912
736.344	76.325202
736.551	76.281766
736.758	75.938920
736.965	75.396354
737.171	74.510605
737.378	73.642827
737.585	72.884251
737.792	72.375328
737.998	72.275001
738.205	72.341132
738.412	72.038141
738.618	71.570178
738.825	71.001333
739.032	70.648552
739.238	70.410665
739.445	70.301407
739.651	70.256442
739.858	70.314484
740.064	70.353915
740.271	70.160962
740.477	69.871162
740.684	69.746534
740.890	69.571536
741.097	69.556222
741.303	69.772615
741.510	70.120181
741.716	70.493058
741.922	70.855993
742.129	70.907480
742.335	70.519037
742.541	70.025067
742.748	69.653574
742.954	69.652751
743.160	70.106524
743.366	70.576805
743.573	70.608610
743.779	70.350327
743.985	70.035679
744.191	69.609159
744.397	69.343047
744.604	69.682014
744.810	70.134577
745.016	70.288188
745.222	70.200848
745.428	69.944373
745.634	69.726724
745.840	69.492817
746.046	69.099891
746.252	68.635866
746.458	68.313300
746.664	68.139525
746.870	67.741641
747.076	67.447916
747.282	67.585231
747.488	67.790462
747.694	67.933742
747.900	67.728635
748.105	67.674686
748.311	68.055330
748.517	68.480674
748.723	68.849957
748.929	69.176695
749.134	69.505969
749.340	69.589545
749.546	69.552976
749.752	69.533315
749.957	69.488331
750.163	69.645103
750.369	69.647576
750.574	69.547548
750.780	69.537130
750.985	69.670340
751.191	69.492281
751.397	69.170523
751.602	68.959899
751.808	68.448304
752.013	67.747652
752.219	67.212730
752.424	67.009300
752.630	67.138097
752.835	67.188382
753.041	67.116260
753.246	66.813671
753.451	66.628970
753.657	66.536433
753.862	66.412557
754.067	66.605921
754.273	67.147703
754.478	67.350612
754.683	67.116828
754.889	66.458258
755.094	65.807894
755.299	65.566621
755.504	65.202757
755.710	64.899186
755.915	64.654643
756.120	64.315295
756.325	64.024947
756.530	63.675986
756.735	63.312301
756.940	62.985874
757.146	63.015241
757.351	63.116402
757.556	62.937186
757.761	62.996685
757.966	62.991399
758.171	62.838660
758.376	62.642160
758.581	62.171381
758.786	61.599432
758.990	61.306655
759.195	61.245792
759.400	60.920458
759.605	60.462556
759.810	60.035366
760.015	59.605584
760.220	59.119676
760.424	58.732587
760.629	58.514759
760.834	58.510242
761.039	58.531194
761.244	58.415709
761.448	58.314363
761.653	58.408034
761.858	58.555694
762.062	58.567674
762.267	58.493314
762.472	58.364711
762.676	58.164142
762.881	57.846774
763.085	57.522964
763.290	57.231775
763.494	56.808319
763.699	56.261681
763.903	55.673162
764.108	55.026949
764.312	54.433662
764.517	53.982904
764.721	53.829796
764.926	53.812867
765.130	53.872733
765.335	53.737900
765.539	53.458701
765.743	53.251445
765.948	53.184816
766.152	53.261482
766.356	53.387508
766.560	53.571257
766.765	53.615916
766.969	53.497097
767.173	53.166749
767.377	52.772202
767.582	52.455651
767.786	52.361973
767.990	52.459307
768.194	52.342641
768.398	52.058022
768.602	51.871133
768.806	51.716027
769.010	51.531141
769.215	51.385958
769.419	51.450450
769.623	51.508462
769.827	51.460734
770.031	51.192712
770.234	50.832558
770.438	50.540410
770.642	50.320144
770.846	50.001546
771.050	49.727207
771.254	49.409406
771.458	49.036002
771.662	48.515324
771.866	48.071869
772.069	47.754621
772.273	47.358453
772.477	46.693193
772.681	46.050260
772.885	45.346545
773.088	44.549266
773.292	43.729396
773.496	43.064137
773.699	42.583866
773.903	42.205533
774.107	41.825343
774.310	41.367415
774.514	40.972537
774.717	40.878496
774.921	40.840887
775.124	40.865112
775.328	41.028275
775.531	41.074842
775.735	41.056799
775.938	40.950193
776.142	40.678223
776.345	40.444121
776.549	40.334175
776.752	40.299785
776.956	40.317707
777.159	40.068353
777.362	39.550086
777.566	39.131525
777.769	38.820562
777.972	38.494614
778.176	38.264331
778.379	38.076637
778.582	37.739925
778.785	37.324404
778.989	36.916851
779.192	36.474517
779.395	36.264244
779.598	35.977550
779.801	35.452578
780.004	34.952736
780.207	34.451444
780.411	33.832549
780.614	33.320090
780.817	32.894094
781.020	32.477493
781.223	32.092443
781.426	31.589140
781.629	31.050654
781.832	30.758632
782.035	30.586613
782.238	30.368747
782.440	30.106121
782.643	29.735043
782.846	29.397152
783.049	29.032037
783.252	28.801857
783.455	28.512096
783.658	28.247776
783.860	27.957799
784.063	27.688255
784.266	27.450913
784.469	27.263028
784.671	27.175859
784.874	26.981036
785.077	26.733955
785.279	26.433915
785.482	26.089148
785.685	25.683143
785.887	25.272861
786.090	24.867296
786.293	24.486102
786.495	24.122817
786.698	23.698726
786.900	23.224739
787.103	22.968936
787.305	22.622860
787.508	22.348337
787.710	22.139904
787.913	22.014228
788.115	21.878384
788.317	21.702778
788.520	21.530679
788.722	21.252190
788.924	20.894918
789.127	20.602357
789.329	20.267397
789.531	20.000424
789.734	19.825381
789.936	19.404774
790.138	18.974297
790.340	18.538691
790.543	18.096816
790.745	17.685273
790.947	17.215535
791.149	16.888117
791.351	16.635615
791.553	16.437400
791.756	16.290246
791.958	16.074352
792.160	15.978503
792.362	15.881158
792.564	15.758157
792.766	15.715056
792.968	15.661832
793.170	15.610478
793.372	15.420487
793.574	15.097470
793.776	14.773120
793.978	14.447240
794.180	14.135831
794.381	13.828533
794.583	13.515253
794.785	13.314821
794.987	13.120677
795.189	12.867570
795.391	12.718221
795.592	12.649027
795.794	12.547427
795.996	12.364925
796.198	12.215973
796.399	12.101250
796.601	11.981016
796.803	11.903080
797.004	11.806806
797.206	11.720356
797.407	11.613265
797.609	11.513867
797.811	11.318407
798.012	11.231668
798.214	11.128237
798.415	10.939704
798.617	10.869430
798.818	10.807023
799.020	10.715058
799.221	10.624971
799.423	10.433073
799.624	10.274497
799.826	10.129419
800.027	10.131431
800.228	10.088178
800.430	10.089646
800.631	10.112216
800.832	9.959333
801.034	9.895134
801.235	9.964538
801.436	9.918541
801.637	10.003978
801.839	10.176707
802.040	10.305603
802.241	10.328476
802.442	10.376615
802.643	10.458339
802.844	10.516661
803.046	10.599181
803.247	10.690079
803.448	10.621371
803.649	10.728294
803.850	10.859003
804.051	10.917420
804.252	11.003408
804.453	11.034397
804.654	11.091938
804.855	11.050619
805.056	11.163340
805.257	11.236374
805.458	11.303975
805.659	11.419973
805.859	11.449882
806.060	11.450493
806.261	11.458111
806.462	11.432105
806.663	11.638959
806.864	11.777473
807.064	12.028838
807.265	12.160391
807.466	12.333526
807.667	12.506382
807.867	12.730867
808.068	12.939337
808.269	13.070459
808.469	13.208010
808.670	13.449809
808.870	13.484377
809.071	13.557782
809.272	13.543365
809.472	13.581033
809.673	13.646544
809.873	13.684310
810.074	13.667813
810.274	13.775678
810.475	14.022830
810.675	14.225352
810.876	14.357579
811.076	14.541620
811.276	14.701987
811.477	14.993944
811.677	15.336163
811.878	15.643591
812.078	15.827301
812.278	16.008916
812.479	16.177375
812.679	16.335732
812.879	16.545545
813.079	16.719196
813.280	16.905182
813.480	17.131341
813.680	17.227515
813.880	17.288681
814.080	17.439545
814.280	17.722936
814.480	18.246890
814.681	18.767009
814.881	19.018310
815.081	19.293525
815.281	19.633976
815.481	19.995283
815.681	20.380421
815.881	20.952844
816.081	21.423092
816.281	21.674970
816.481	21.949528
816.681	22.052362
816.880	22.166755
817.080	22.419268
817.280	22.680390
817.480	22.960127
817.680	23.223777
817.880	23.475229
818.080	23.500932
818.279	23.634754
818.479	23.805620
818.679	24.021660
818.879	24.331022
819.078	24.542468
819.278	24.766285
819.478	24.872955
819.677	25.036033
819.877	25.341877
820.077	25.558911
820.276	25.876341
820.476	25.985769
820.675	26.106150
820.875	26.114692
821.074	26.169167
821.274	26.295937
821.473	26.499368
821.673	26.748941
821.872	26.947437
822.072	27.129111
822.271	27.415233
822.471	27.770407
822.670	28.271844
822.869	28.862312
823.069	29.457894
823.268	29.827834
823.467	30.221983
823.667	30.613342
823.866	30.929819
824.065	31.233959
824.265	31.509597
824.464	31.748375
824.663	31.890874
824.862	32.062343
825.061	32.343890
825.261	32.381941
825.460	32.412816
825.659	32.360955
825.858	32.268480
826.057	32.398891
826.256	32.633331
826.455	32.908712
826.654	33.033353
826.853	33.070844
827.052	33.127785
827.251	33.325102
