Date	2025年07月03日木曜日 09時46分49秒
Spectrometers	SR401765
ダーク	使用
リファレンス	使用
積分時間[msec]	300
平均回数	1
ｽﾑｰｼﾞﾝｸﾞ	5
Electrical Dark	USE
ピクセル数	3648
計測モード	反射率
保存開始波長[nm]	598.495
保存終了波長[nm]	1274.802
保存ﾋﾟｯﾁ波長[nm]	全波長

>>>>>>>>>> Data Start <<<<<<<<<<<<
598.495	0.000000
598.713	0.000000
598.931	0.000000
599.148	0.000000
599.366	0.000000
599.584	0.000000
599.802	0.000000
600.020	-56.867981
600.238	68.804559
600.455	-459.470138
600.673	0.000000
600.891	12.764408
601.109	17.878139
601.326	19.285180
601.544	20.190994
601.762	20.575772
601.979	20.665737
602.197	20.869689
602.415	20.830005
602.632	20.809419
602.850	20.839894
603.067	20.809569
603.285	21.044750
603.502	21.281153
603.720	21.466519
603.938	21.589035
604.155	21.805114
604.372	22.104374
604.590	22.309934
604.807	22.593727
605.025	22.714707
605.242	22.835889
605.460	23.059640
605.677	23.258955
605.894	23.475577
606.112	23.667023
606.329	23.775336
606.546	23.811109
606.764	23.882996
606.981	24.182611
607.198	24.488894
607.415	24.806403
607.633	25.149522
607.850	25.533171
608.067	25.673781
608.284	25.735091
608.501	25.900421
608.718	26.115583
608.935	26.316296
609.153	26.474978
609.370	26.476295
609.587	26.628921
609.804	26.799923
610.021	26.929206
610.238	26.886919
610.455	27.069163
610.672	27.232372
610.889	27.398027
611.106	27.512875
611.323	27.756774
611.540	28.106435
611.756	28.328216
611.973	28.379874
612.190	28.498873
612.407	28.708585
612.624	28.984287
612.841	29.152324
613.057	29.426381
613.274	29.535034
613.491	29.688744
613.708	29.963523
613.925	30.094856
614.141	30.251773
614.358	30.422265
614.575	30.637886
614.791	30.784989
615.008	30.892008
615.225	31.223453
615.441	31.547317
615.658	31.743698
615.874	32.116939
616.091	32.294246
616.307	32.583339
616.524	32.846816
616.740	33.126831
616.957	33.318256
617.173	33.509473
617.390	33.909760
617.606	34.229803
617.823	34.575148
618.039	34.813209
618.256	34.880886
618.472	35.134831
618.688	35.301428
618.905	35.633589
619.121	36.122649
619.337	36.487075
619.554	36.821239
619.770	37.004377
619.986	37.051794
620.202	37.031597
620.419	37.211154
620.635	37.411694
620.851	37.505257
621.067	37.707815
621.283	37.769550
621.499	37.641579
621.716	37.715615
621.932	37.887659
622.148	38.208122
622.364	38.418437
622.580	38.564983
622.796	38.919128
623.012	39.364550
623.228	39.621783
623.444	39.789329
623.660	40.110526
623.876	40.567112
624.092	41.093985
624.308	41.334793
624.524	41.368802
624.740	41.499455
624.955	41.655182
625.171	41.712341
625.387	41.768822
625.603	42.055352
625.819	42.418779
626.034	42.704898
626.250	43.053033
626.466	43.266155
626.682	43.689145
626.897	43.935950
627.113	44.173806
627.329	44.528551
627.544	44.787668
627.760	44.899451
627.976	44.880697
628.191	44.875103
628.407	44.916308
628.623	44.867347
628.838	44.826773
629.054	44.816210
629.269	45.052168
629.485	45.565177
629.700	45.927785
629.916	46.264801
630.131	46.617628
630.347	46.910419
630.562	47.284002
630.777	47.639215
630.993	47.855699
631.208	48.158506
631.424	48.577548
631.639	49.068638
631.854	49.295635
632.070	49.636580
632.285	49.962672
632.500	50.336339
632.715	50.773667
632.931	51.080197
633.146	51.256422
633.361	51.546274
633.576	51.944219
633.791	52.220431
634.007	52.318886
634.222	52.428828
634.437	52.588290
634.652	52.736156
634.867	52.938759
635.082	53.241086
635.297	53.437496
635.512	53.561593
635.727	53.703418
635.942	53.678694
636.157	53.691158
636.372	53.737927
636.587	53.752667
636.802	53.631410
637.017	53.709020
637.232	53.758541
637.447	53.648718
637.662	53.547349
637.876	53.702380
638.091	53.863075
638.306	53.972217
638.521	54.106131
638.736	54.252455
638.951	54.290235
639.165	54.486800
639.380	54.637138
639.595	54.793076
639.809	54.979975
640.024	55.111849
640.239	55.119558
640.453	55.266974
640.668	55.556794
640.883	55.752325
641.097	55.915777
641.312	56.238423
641.526	56.517368
641.741	56.771129
641.955	57.003161
642.170	57.379902
642.384	57.851363
642.599	58.123473
642.813	58.168903
643.028	58.302099
643.242	58.537748
643.457	58.715122
643.671	58.865509
643.885	58.832644
644.100	58.774309
644.314	58.812401
644.528	58.651857
644.743	58.555773
644.957	58.660997
645.171	58.917281
645.386	58.914042
645.600	58.887511
645.814	58.993674
646.028	59.175141
646.242	59.549315
646.457	59.843958
646.671	59.861764
646.885	60.035526
647.099	60.273698
647.313	60.568543
647.527	60.734326
647.741	60.723831
647.955	60.565101
648.169	60.561399
648.383	60.615337
648.597	60.723566
648.811	60.810852
649.025	61.007852
649.239	61.327302
649.453	61.605847
649.667	61.870761
649.881	62.110435
650.095	62.591669
650.309	63.223586
650.523	63.676002
650.737	64.053040
650.950	64.244126
651.164	64.368625
651.378	64.737745
651.592	65.032605
651.805	65.308818
652.019	65.542795
652.233	65.628092
652.447	65.715328
652.660	65.703648
652.874	65.765017
653.088	65.844401
653.301	65.908380
653.515	66.037436
653.728	65.989910
653.942	65.907595
654.156	65.882555
654.369	65.834740
654.583	65.899177
654.796	66.111661
655.010	66.302213
655.223	66.334905
655.437	66.300547
655.650	66.291017
655.863	66.382620
656.077	66.605755
656.290	66.807376
656.504	66.982999
656.717	67.102571
656.930	67.253962
657.144	67.239883
657.357	67.419494
657.570	67.689705
657.783	67.948772
657.997	68.155217
658.210	68.485649
658.423	68.738526
658.636	68.785426
658.849	68.790395
659.063	68.703457
659.276	68.672974
659.489	68.645138
659.702	68.540913
659.915	68.601936
660.128	68.690803
660.341	68.781251
660.554	68.850965
660.767	68.815994
660.980	68.870214
661.193	68.984457
661.406	69.222572
661.619	69.421479
661.832	69.555192
662.045	69.648996
662.258	69.619067
662.471	69.604874
662.684	69.862257
662.897	69.870916
663.110	69.828289
663.322	69.724449
663.535	69.605946
663.748	69.739441
663.961	69.992120
664.174	70.226236
664.386	70.363897
664.599	70.437266
664.812	70.669464
665.024	70.792599
665.237	70.984971
665.450	71.126734
665.662	71.198473
665.875	71.201212
666.088	71.000981
666.300	70.762970
666.513	70.714848
666.725	70.801467
666.938	70.810063
667.150	70.706835
667.363	70.521650
667.575	70.635008
667.788	70.882722
668.000	71.133981
668.213	71.337260
668.425	71.614360
668.638	71.828749
668.850	71.927778
669.062	71.938012
669.275	72.119049
669.487	72.516964
669.699	72.801051
669.912	72.730780
670.124	72.600115
670.336	72.578015
670.548	72.512216
670.761	72.546431
670.973	72.625077
671.185	72.731938
671.397	72.943517
671.609	73.116516
671.822	72.935747
672.034	72.895905
672.246	72.977309
672.458	73.069292
672.670	73.184412
672.882	73.344929
673.094	73.205605
673.306	73.172746
673.518	73.234440
673.730	73.235102
673.942	73.191722
674.154	73.139776
674.366	73.094324
674.578	73.202025
674.790	73.311552
675.002	73.225842
675.214	73.230591
675.425	73.526208
675.637	73.768812
675.849	73.850878
676.061	74.000946
676.273	74.238935
676.484	74.337632
676.696	74.335450
676.908	74.190246
677.120	74.234057
677.331	74.282822
677.543	74.219848
677.755	74.099698
677.966	73.963625
678.178	73.832825
678.389	73.493423
678.601	73.017580
678.813	72.970352
679.024	73.116234
679.236	73.204476
679.447	73.132450
679.659	73.265402
679.870	73.630907
680.082	73.776284
680.293	73.678476
680.505	73.676628
680.716	73.898705
680.927	74.372305
681.139	74.524429
681.350	74.424707
681.562	74.174981
681.773	74.086663
681.984	74.165867
682.196	74.124488
682.407	74.115228
682.618	74.224738
682.829	74.368622
683.041	74.427077
683.252	74.397706
683.463	74.564269
683.674	74.818782
683.885	75.425727
684.097	75.783493
684.308	75.824401
684.519	75.767606
684.730	75.810830
684.941	75.874859
685.152	75.714105
685.363	75.511821
685.574	75.377818
685.785	75.199857
685.996	75.107385
686.207	75.005629
686.418	74.911189
686.629	74.854987
686.840	74.786154
687.051	74.649866
687.262	74.552980
687.473	74.648569
687.684	74.924565
687.894	75.023460
688.105	74.938726
688.316	74.673278
688.527	74.397606
688.738	74.574667
688.948	75.026618
689.159	75.322387
689.370	75.661824
689.580	76.018253
689.791	76.162176
690.002	76.153644
690.212	76.165018
690.423	76.432144
690.634	76.754764
690.844	77.048013
691.055	77.092573
691.266	76.992803
691.476	77.129700
691.687	77.172000
691.897	77.097796
692.108	77.223236
692.318	77.498940
692.529	77.593745
692.739	77.525809
692.949	77.561424
693.160	77.437152
693.370	77.312450
693.581	77.225996
693.791	77.095638
694.001	77.082868
694.212	77.064472
694.422	77.200372
694.632	77.294982
694.843	77.400990
695.053	77.542242
695.263	77.755257
695.473	78.029143
695.683	78.148208
695.894	78.302151
696.104	78.387915
696.314	78.286179
696.524	78.202019
696.734	77.705363
696.944	77.244474
697.154	77.228312
697.365	77.092931
697.575	76.743270
697.785	76.428304
697.995	76.166458
698.205	75.920565
698.415	75.819620
698.625	75.929495
698.834	76.188959
699.044	76.522144
699.254	76.694715
699.464	76.561732
699.674	76.526700
699.884	76.715554
700.094	76.986335
700.304	77.215257
700.513	77.035507
700.723	76.809126
700.933	76.724256
701.143	76.627231
701.353	76.675134
701.562	76.676365
701.772	76.807033
701.982	77.025706
702.191	76.994886
702.401	76.794571
702.611	76.569948
702.820	76.582669
703.030	76.683196
703.239	76.764033
703.449	76.607341
703.659	76.407632
703.868	76.436363
704.078	76.326874
704.287	76.139550
704.497	76.245488
704.706	76.564430
704.916	76.873323
705.125	77.170458
705.334	77.343523
705.544	77.425036
705.753	77.710752
705.962	78.086946
706.172	78.194033
706.381	78.342993
706.590	78.578456
706.800	78.601617
707.009	78.364307
707.218	78.171874
707.428	78.062689
707.637	78.076867
707.846	77.975995
708.055	77.709115
708.264	77.466913
708.474	77.423588
708.683	77.527013
708.892	77.577688
709.101	77.694011
709.310	77.892594
709.519	78.066916
709.728	78.196068
709.937	78.139671
710.146	78.041294
710.355	78.211417
710.564	78.404883
710.773	78.580579
710.982	78.538291
711.191	78.356683
711.400	78.067448
711.609	77.929900
711.818	78.031099
712.027	78.121605
712.235	78.226346
712.444	78.253326
712.653	78.189965
712.862	78.034090
713.071	77.842798
713.279	77.546521
713.488	77.312020
713.697	77.158186
713.906	76.975890
714.114	76.760224
714.323	76.360786
714.532	75.864234
714.740	75.561098
714.949	75.249218
715.157	75.178081
715.366	75.052069
715.575	75.046991
715.783	75.240477
715.992	75.493410
716.200	75.630425
716.409	75.625464
716.617	75.892127
716.826	76.380118
717.034	76.874954
717.242	77.316008
717.451	77.400771
717.659	77.403770
717.868	77.473652
718.076	77.537944
718.284	77.483089
718.493	77.577269
718.701	77.581529
718.909	77.292185
719.118	76.924117
719.326	76.748375
719.534	76.689740
719.742	76.630328
719.951	76.684215
720.159	76.740946
720.367	76.581158
720.575	76.466525
720.783	76.316784
720.991	76.328434
721.199	76.429495
721.408	76.322078
721.616	76.026213
721.824	75.647660
722.032	75.482580
722.240	75.512090
722.448	75.789399
722.656	76.175805
722.864	76.495729
723.072	76.513115
723.280	76.420565
723.487	76.620433
723.695	77.151758
723.903	77.749794
724.111	78.364267
724.319	78.795117
724.527	78.956989
724.735	78.685196
724.942	78.284625
725.150	78.040545
725.358	78.111824
725.566	78.413118
725.773	78.515811
725.981	78.198073
726.189	77.781885
726.396	77.443725
726.604	77.115055
726.812	76.818018
727.019	76.937743
727.227	77.163069
727.435	77.121889
727.642	76.906142
727.850	76.604309
728.057	76.504920
728.265	76.781354
728.472	76.926621
728.680	76.888572
728.887	76.889829
729.095	76.863965
729.302	76.521304
729.509	76.242917
729.717	76.160486
729.924	75.976379
730.132	75.654253
730.339	75.450846
730.546	75.325940
730.753	75.277693
730.961	75.204997
731.168	75.144598
731.375	75.288127
731.583	75.476401
731.790	75.381229
731.997	75.306164
732.204	75.569525
732.411	75.895688
732.618	76.048776
732.826	75.970166
733.033	75.782244
733.240	75.522710
733.447	75.177157
733.654	74.804576
733.861	74.567806
734.068	74.548992
734.275	74.420229
734.482	74.042121
734.689	73.402873
734.896	72.547764
735.103	72.038582
735.310	71.941868
735.517	72.040392
735.724	72.256801
735.931	72.422113
736.137	72.471804
736.344	72.470492
736.551	72.442585
736.758	72.630893
736.965	73.257115
737.171	73.906638
737.378	74.290898
737.585	74.321261
737.792	74.285449
737.998	74.245881
738.205	74.102860
738.412	73.869426
738.618	73.701086
738.825	73.653250
739.032	73.447960
739.238	73.069562
739.445	72.842434
739.651	72.576637
739.858	72.454226
740.064	72.340910
740.271	72.222520
740.477	72.255413
740.684	72.602448
740.890	73.066741
741.097	73.330463
741.303	73.506673
741.510	73.718254
741.716	73.866398
741.922	74.094552
742.129	74.298186
742.335	74.585073
742.541	74.631870
742.748	74.610099
742.954	74.396668
743.160	73.888218
743.366	73.624894
743.573	73.451026
743.779	73.180050
743.985	72.905977
744.191	72.730543
744.397	72.680997
744.604	72.395189
744.810	72.139202
745.016	71.847617
745.222	71.592002
745.428	71.642913
745.634	71.855857
745.840	72.220981
746.046	72.609357
746.252	72.919205
746.458	72.789660
746.664	72.482328
746.870	72.552555
747.076	73.073977
747.282	73.527245
747.488	73.459645
747.694	73.219982
747.900	72.678193
748.105	71.994234
748.311	71.574792
748.517	71.391434
748.723	71.593196
748.929	71.853218
749.134	71.854750
749.340	71.445712
749.546	71.052903
749.752	71.206054
749.957	71.431947
750.163	71.642945
750.369	71.754245
750.574	71.690668
750.780	71.597265
750.985	71.508078
751.191	71.465548
751.397	71.648777
751.602	71.890259
751.808	72.061320
752.013	72.212008
752.219	72.320403
752.424	72.133581
752.630	71.882409
752.835	71.668080
753.041	71.437894
753.246	71.260174
753.451	70.862836
753.657	70.157423
753.862	69.633367
754.067	69.399324
754.273	68.905562
754.478	68.244966
754.683	68.079330
754.889	68.156353
755.094	68.136364
755.299	68.085709
755.504	67.907261
755.710	67.875438
755.915	67.982748
756.120	67.801284
756.325	67.517676
756.530	67.567578
756.735	67.807565
756.940	67.832354
757.146	67.741148
757.351	67.777421
757.556	67.811321
757.761	67.847265
757.966	67.919217
758.171	68.034126
758.376	68.338352
758.581	68.463464
758.786	68.205600
758.990	67.717828
759.195	67.402511
759.400	67.310127
759.605	67.346457
759.810	67.481451
760.015	67.654118
760.220	67.528640
760.424	67.195340
760.629	66.992400
760.834	66.880541
761.039	66.862934
761.244	67.160728
761.448	67.361041
761.653	67.363433
761.858	67.100384
762.062	66.794842
762.267	66.555168
762.472	66.379633
762.676	66.453883
762.881	66.372845
763.085	66.305905
763.290	66.258314
763.494	66.140913
763.699	66.215486
763.903	66.372121
764.108	66.507943
764.312	66.483188
764.517	66.270113
764.721	66.120596
764.926	65.983568
765.130	65.902892
765.335	65.831265
765.539	65.738549
765.743	65.645979
765.948	65.442712
766.152	65.241443
766.356	64.868469
766.560	64.385188
766.765	63.880548
766.969	63.582177
767.173	63.117954
767.377	62.651850
767.582	62.333422
767.786	62.172613
767.990	61.950175
768.194	61.707543
768.398	61.444985
768.602	61.266543
768.806	61.247844
769.010	61.334871
769.215	61.359969
769.419	61.489195
769.623	61.756273
769.827	61.883963
770.031	61.946522
770.234	61.949050
770.438	61.680098
770.642	61.390307
770.846	61.437991
771.050	61.475467
771.254	61.530799
771.458	61.542269
771.662	61.170416
771.866	60.477963
772.069	59.955991
772.273	59.579693
772.477	59.277287
772.681	59.350379
772.885	59.409093
773.088	59.106301
773.292	58.667091
773.496	58.128186
773.699	57.800483
773.903	57.914045
774.107	58.120291
774.310	58.286134
774.514	58.357213
774.717	58.374056
774.921	58.102183
775.124	57.862508
775.328	57.753128
775.531	57.671277
775.735	57.731730
775.938	57.681421
776.142	57.597127
776.345	57.556588
776.549	57.270497
776.752	56.710121
776.956	56.333727
777.159	56.178939
777.362	56.045751
777.566	55.996404
777.769	56.104569
777.972	56.074558
778.176	55.661918
778.379	55.074453
778.582	54.517810
778.785	54.279307
778.989	54.419290
779.192	54.349766
779.395	54.244404
779.598	53.958354
779.801	53.543139
780.004	53.084929
780.207	52.703031
780.411	52.710942
780.614	52.750181
780.817	52.781836
781.020	52.645404
781.223	52.365510
781.426	52.084817
781.629	51.786793
781.832	51.543776
782.035	51.407937
782.238	51.327805
782.440	51.238498
782.643	51.017278
782.846	50.780233
783.049	50.519970
783.252	50.171567
783.455	49.706913
783.658	49.329246
783.860	48.984254
784.063	48.695984
784.266	48.308169
784.469	47.998745
784.671	47.623835
784.874	47.147334
785.077	46.734783
785.279	46.261701
785.482	45.951068
785.685	45.792345
785.887	45.646664
786.090	45.553342
786.293	45.360554
786.495	45.161484
786.698	44.917462
786.900	44.623882
787.103	44.499921
787.305	44.309475
787.508	44.157131
787.710	43.934072
787.913	43.546288
788.115	43.187176
788.317	42.746780
788.520	42.421207
788.722	42.129278
788.924	41.647639
789.127	41.358742
789.329	40.964144
789.531	40.660889
789.734	40.491513
789.936	40.442052
790.138	40.462441
790.340	40.413531
790.543	40.310329
790.745	40.122136
790.947	39.904772
791.149	39.713038
791.351	39.365649
791.553	39.047752
791.756	38.830703
791.958	38.542596
792.160	38.022866
792.362	37.444853
792.564	36.863957
792.766	36.310292
792.968	35.882597
793.170	35.617825
793.372	35.413384
793.574	35.256382
793.776	35.231179
793.978	35.128962
794.180	34.892856
794.381	34.776349
794.583	34.633740
794.785	34.522092
794.987	34.473523
795.189	34.384522
795.391	34.031739
795.592	33.676648
795.794	33.324437
795.996	32.828078
796.198	32.402395
796.399	32.075861
796.601	31.765025
796.803	31.571073
797.004	31.256388
797.206	30.860580
797.407	30.445155
797.609	30.153160
797.811	29.853813
798.012	29.631675
798.214	29.474213
798.415	29.159714
798.617	28.897063
798.818	28.447770
799.020	28.040874
799.221	27.752424
799.423	27.332727
799.624	26.920271
799.826	26.567328
800.027	26.231858
800.228	25.826040
800.430	25.416308
800.631	25.131008
800.832	24.776109
801.034	24.509706
801.235	24.282235
801.436	24.006321
801.637	23.844626
801.839	23.682020
802.040	23.399709
802.241	23.274301
802.442	23.159379
802.643	23.006794
802.844	22.739199
803.046	22.389791
803.247	22.176242
803.448	21.846390
803.649	21.506990
803.850	21.217369
804.051	20.912108
804.252	20.588187
804.453	20.020465
804.654	19.591936
804.855	19.163302
805.056	18.794792
805.257	18.525731
805.458	18.168267
805.659	17.907090
805.859	17.626751
806.060	17.331115
806.261	17.090735
806.462	16.828709
806.663	16.636527
806.864	16.334627
807.064	16.113550
807.265	15.782437
807.466	15.528658
807.667	15.271724
807.867	14.963776
808.068	14.653285
808.269	14.479064
808.469	14.240007
808.670	14.078052
808.870	13.910317
809.071	13.671935
809.272	13.299896
809.472	13.034703
809.673	12.789653
809.873	12.505779
810.074	12.224978
810.274	12.124924
810.475	11.862789
810.675	11.609349
810.876	11.385075
811.076	11.212210
811.276	11.023178
811.477	10.860926
811.677	10.807810
811.878	10.650174
812.078	10.492705
812.278	10.321202
812.479	10.087914
812.679	9.956768
812.879	9.766256
813.079	9.623045
813.280	9.402832
813.480	9.319200
813.680	9.179566
813.880	8.978446
814.080	8.821567
814.280	8.674197
814.480	8.630706
814.681	8.599711
814.881	8.409624
815.081	8.303525
815.281	8.264480
815.481	8.255928
815.681	8.102264
815.881	8.083376
816.081	8.066891
816.281	8.057422
816.481	8.048231
816.681	8.069520
816.880	7.980558
817.080	7.940459
817.280	7.921958
817.480	7.850153
817.680	7.732147
817.880	7.698600
818.080	7.679025
818.279	7.717813
818.479	7.678696
818.679	7.763056
818.879	7.847334
819.078	7.972487
819.278	8.071482
819.478	8.144589
819.677	8.147881
819.877	8.306859
820.077	8.533751
820.276	8.667674
820.476	8.630008
820.675	8.711267
820.875	8.703479
821.074	8.701284
821.274	8.695348
821.473	8.681400
821.673	8.620517
821.872	8.641985
822.072	8.527516
822.271	8.441987
822.471	8.477321
822.670	8.597299
822.869	8.626799
823.069	8.792599
823.268	8.797926
823.467	8.833005
823.667	8.978311
823.866	9.145686
824.065	9.241848
824.265	9.453254
824.464	9.560920
824.663	9.721888
824.862	9.907815
825.061	10.173496
825.261	10.242063
825.460	10.308883
825.659	10.505776
825.858	10.719862
826.057	11.039397
826.256	11.303279
826.455	11.528277
826.654	11.803357
826.853	11.911061
827.052	12.001389
827.251	12.217609
827.450	12.438790
827.649	12.678218
827.848	12.766547
