Date	2025年07月03日木曜日 09時50分36秒
Spectrometers	SR401765
ダーク	使用
リファレンス	使用
積分時間[msec]	300
平均回数	1
ｽﾑｰｼﾞﾝｸﾞ	5
Electrical Dark	USE
ピクセル数	3648
計測モード	反射率
保存開始波長[nm]	598.495
保存終了波長[nm]	1274.802
保存ﾋﾟｯﾁ波長[nm]	全波長

>>>>>>>>>> Data Start <<<<<<<<<<<<
598.495	-9.218452
598.713	-9.218452
598.931	-9.218452
599.148	-9.218452
599.366	0.000000
599.584	0.000000
599.802	0.000000
600.020	0.000000
600.238	0.000000
600.455	-90.815852
600.673	-141.158123
600.891	39.800678
601.109	45.630337
601.326	46.252021
601.544	47.115440
601.762	47.055285
601.979	46.642034
602.197	46.601248
602.415	46.695422
602.632	46.722550
602.850	46.660084
603.067	46.552488
603.285	46.861335
603.502	46.949272
603.720	47.090281
603.938	47.173756
604.155	47.380550
604.372	47.802440
604.590	48.210973
604.807	48.496327
605.025	48.857437
605.242	49.253911
605.460	49.665965
605.677	49.808636
605.894	50.035842
606.112	50.370892
606.329	50.679546
606.546	50.825909
606.764	50.980960
606.981	51.113336
607.198	51.138110
607.415	51.079385
607.633	51.194466
607.850	51.229575
608.067	51.216575
608.284	51.218216
608.501	51.307999
608.718	51.339657
608.935	51.571147
609.153	51.747698
609.370	51.801680
609.587	51.837028
609.804	52.122350
610.021	52.289396
610.238	52.340599
610.455	52.314246
610.672	52.384878
610.889	52.489524
611.106	52.604233
611.323	52.694684
611.540	52.834582
611.756	53.009030
611.973	53.244460
612.190	53.379238
612.407	53.764097
612.624	54.272262
612.841	54.713910
613.057	54.914337
613.274	54.970261
613.491	55.062608
613.708	54.959886
613.925	54.878354
614.141	54.785603
614.358	54.858571
614.575	54.820779
614.791	54.528859
615.008	54.268563
615.225	54.376569
615.441	54.729371
615.658	54.820833
615.874	54.831479
616.091	55.057771
616.307	55.234442
616.524	55.613327
616.740	55.976130
616.957	56.205014
617.173	56.499530
617.390	56.890944
617.606	57.006481
617.823	56.829592
618.039	56.775154
618.256	57.033988
618.472	57.476343
618.688	57.887600
618.905	58.039437
619.121	58.099188
619.337	58.363765
619.554	58.731929
619.770	58.917491
619.986	59.169153
620.202	59.605619
620.419	59.930689
620.635	59.979534
620.851	59.793760
621.067	59.645213
621.283	59.679602
621.499	59.775753
621.716	59.950010
621.932	59.856909
622.148	59.879879
622.364	60.082859
622.580	60.440238
622.796	60.976847
623.012	61.524600
623.228	62.156442
623.444	62.902257
623.660	63.365168
623.876	63.560803
624.092	63.578040
624.308	63.912346
624.524	64.276116
624.740	64.426629
624.955	64.251521
625.171	63.927002
625.387	63.909040
625.603	63.953022
625.819	63.722550
626.034	63.511760
626.250	63.585072
626.466	64.018418
626.682	64.261374
626.897	64.197911
627.113	64.115439
627.329	64.102719
627.544	64.310288
627.760	64.373100
627.976	64.302519
628.191	64.464561
628.407	64.603811
628.623	64.796499
628.838	64.909669
629.054	65.084798
629.269	65.319936
629.485	65.480885
629.700	65.729419
629.916	65.944977
630.131	66.162241
630.347	66.423410
630.562	66.577404
630.777	67.023707
630.993	67.410690
631.208	67.726575
631.424	67.813259
631.639	68.014285
631.854	68.461176
632.070	68.902262
632.285	69.203220
632.500	69.526103
632.715	69.679278
632.931	69.765908
633.146	69.992267
633.361	70.274980
633.576	70.329063
633.791	70.302893
634.007	70.153048
634.222	69.819251
634.437	69.516474
634.652	69.329106
634.867	69.195275
635.082	69.186707
635.297	69.401807
635.512	69.429373
635.727	69.362067
635.942	69.164967
636.157	69.052398
636.372	69.216841
636.587	69.538327
636.802	69.944608
637.017	70.352879
637.232	70.583980
637.447	70.877368
637.662	70.874113
637.876	70.983430
638.091	70.948065
638.306	70.885121
638.521	71.163481
638.736	71.312699
638.951	71.323166
639.165	71.246048
639.380	70.957279
639.595	70.612088
639.809	70.432536
640.024	70.506450
640.239	70.336043
640.453	70.436134
640.668	70.809713
640.883	70.900726
641.097	71.152756
641.312	71.565321
641.526	72.072637
641.741	72.774098
641.955	73.504831
642.170	73.974918
642.384	74.243766
642.599	74.457924
642.813	74.525280
643.028	74.614316
643.242	74.699007
643.457	74.773047
643.671	75.038255
643.885	75.160095
644.100	74.998120
644.314	74.502245
644.528	74.090583
644.743	74.058824
644.957	74.101314
645.171	74.120244
645.386	73.924800
645.600	74.105090
645.814	74.153229
646.028	73.921921
646.242	73.558410
646.457	73.225704
646.671	73.233495
646.885	73.343863
647.099	73.441272
647.313	73.651927
647.527	73.910636
647.741	74.400278
647.955	74.523428
648.169	74.496973
648.383	74.299387
648.597	74.336794
648.811	74.701760
649.025	75.201718
649.239	75.458069
649.453	75.269182
649.667	74.976395
649.881	74.638902
650.095	74.452651
650.309	74.494684
650.523	74.530963
650.737	74.492084
650.950	74.243624
651.164	74.077933
651.378	73.859963
651.592	73.743738
651.805	73.758134
652.019	73.830483
652.233	73.936157
652.447	73.848256
652.660	73.789388
652.874	73.846781
653.088	74.172954
653.301	74.701720
653.515	75.056659
653.728	75.214770
653.942	75.345804
654.156	75.747713
654.369	76.232629
654.583	76.507203
654.796	76.720235
655.010	76.699969
655.223	76.587792
655.437	76.504555
655.650	76.362965
655.863	76.277713
656.077	76.391259
656.290	76.537672
656.504	76.542364
656.717	76.546830
656.930	76.786129
657.144	76.999667
657.357	77.138565
657.570	77.330563
657.783	77.464421
657.997	77.654752
658.210	77.811372
658.423	77.954003
658.636	78.155456
658.849	78.176315
659.063	78.081807
659.276	78.153591
659.489	78.197163
659.702	78.202040
659.915	78.209475
660.128	78.183266
660.341	78.111857
660.554	78.167766
660.767	78.151577
660.980	77.912124
661.193	77.735920
661.406	77.607131
661.619	77.359691
661.832	77.397008
662.045	77.738316
662.258	77.998275
662.471	78.100035
662.684	78.232317
662.897	78.209137
663.110	78.123709
663.322	78.438443
663.535	78.886446
663.748	79.048497
663.961	79.180872
664.174	79.296505
664.386	79.302618
664.599	79.563262
664.812	80.068063
665.024	80.452743
665.237	80.549760
665.450	80.673669
665.662	80.724662
665.875	80.641024
666.088	80.955076
666.300	81.318855
666.513	81.437932
666.725	81.299101
666.938	81.078978
667.150	80.704372
667.363	80.222363
667.575	80.135939
667.788	80.267701
668.000	80.299334
668.213	80.329313
668.425	80.106902
668.638	79.638929
668.850	79.187779
669.062	79.199577
669.275	79.558661
669.487	79.953757
669.699	80.248846
669.912	80.460128
670.124	80.462985
670.336	80.388886
670.548	80.422751
670.761	80.747375
670.973	81.310479
671.185	81.686444
671.397	81.530958
671.609	80.960024
671.822	80.535333
672.034	80.466308
672.246	80.401985
672.458	80.298518
672.670	80.152546
672.882	79.997987
673.094	79.589991
673.306	79.132494
673.518	78.998210
673.730	79.121161
673.942	79.222875
674.154	79.227808
674.366	79.177085
674.578	79.155137
674.790	79.351204
675.002	79.655163
675.214	79.931036
675.425	80.221916
675.637	80.457347
675.849	80.684457
676.061	80.811784
676.273	80.738281
676.484	80.709204
676.696	80.846708
676.908	81.088213
677.120	81.191724
677.331	81.114468
677.543	81.071268
677.755	81.071705
677.966	81.093517
678.178	81.077598
678.389	81.172088
678.601	81.550756
678.813	82.002791
679.024	82.226930
679.236	82.181476
679.447	82.299911
679.659	82.577250
679.870	82.579863
680.082	82.268098
680.293	81.859792
680.505	81.556178
680.716	81.371815
680.927	81.162149
681.139	81.112573
681.350	81.301386
681.562	81.456204
681.773	81.382174
681.984	81.231224
682.196	81.075966
682.407	81.265114
682.618	81.587305
682.829	81.559855
683.041	81.449335
683.252	81.680462
683.463	81.806264
683.674	81.484565
683.885	81.145471
684.097	80.862801
684.308	80.749736
684.519	80.757000
684.730	80.579244
684.941	80.601322
685.152	81.192102
685.363	81.763726
685.574	81.610390
685.785	81.225878
685.996	81.081848
686.207	81.164508
686.418	81.509606
686.629	81.653052
686.840	81.685562
687.051	81.894717
687.262	81.861773
687.473	81.706684
687.684	81.517147
687.894	81.398203
688.105	81.455079
688.316	81.555619
688.527	81.374870
688.738	80.835944
688.948	80.379568
689.159	80.284575
689.370	80.235256
689.580	80.349995
689.791	80.444136
690.002	80.528026
690.212	80.910612
690.423	81.122078
690.634	81.131078
690.844	81.386186
691.055	81.668585
691.266	81.879092
691.476	81.897824
691.687	81.666874
691.897	81.181764
692.108	80.617721
692.318	80.407282
692.529	80.180549
692.739	79.957810
692.949	79.746407
693.160	79.436682
693.370	79.319048
693.581	79.298679
693.791	79.316709
694.001	79.726630
694.212	80.436107
694.422	81.111104
694.632	81.504334
694.843	81.928360
695.053	82.420922
695.263	82.762711
695.473	83.256369
695.683	83.677641
695.894	83.901897
696.104	84.031199
696.314	83.935949
696.524	83.757241
696.734	83.631179
696.944	83.599849
697.154	83.486042
697.365	83.075286
697.575	82.852304
697.785	82.667331
697.995	82.487348
698.205	82.605947
698.415	83.161181
698.625	83.624042
698.834	83.605567
699.044	83.417412
699.254	83.266310
699.464	82.926654
699.674	82.517283
699.884	82.245804
700.094	82.172392
700.304	82.046963
700.513	81.656167
700.723	80.885818
700.933	80.326883
701.143	80.276301
701.353	80.250729
701.562	80.084243
701.772	80.172327
701.982	80.312291
702.191	80.122919
702.401	79.871678
702.611	79.650777
702.820	79.763042
703.030	80.084260
703.239	80.277732
703.449	80.162913
703.659	79.927605
703.868	79.736779
704.078	79.793082
704.287	80.264573
704.497	80.934229
704.706	81.168696
704.916	81.321808
705.125	81.311463
705.334	81.159475
705.544	80.795378
705.753	80.359294
705.962	80.212380
706.172	80.092508
706.381	79.637996
706.590	78.945068
706.800	78.561998
707.009	78.608966
707.218	78.569855
707.428	78.477969
707.637	78.451373
707.846	78.510536
708.055	78.718683
708.264	78.923812
708.474	79.061670
708.683	79.127114
708.892	79.256018
709.101	79.321370
709.310	79.243434
709.519	79.448066
709.728	79.716214
709.937	79.839918
710.146	80.086057
710.355	80.173242
710.564	80.105249
710.773	80.220426
710.982	80.704808
711.191	81.477857
711.400	82.131780
711.609	82.498128
711.818	82.605644
712.027	82.424529
712.235	82.180189
712.444	82.025489
712.653	81.940821
712.862	81.861409
713.071	81.718275
713.279	81.357457
713.488	80.927473
713.697	80.447258
713.906	79.982532
714.114	79.716973
714.323	79.633968
714.532	79.578146
714.740	79.389944
714.949	79.318760
715.157	79.173746
715.366	78.918852
715.575	78.727059
715.783	78.708059
715.992	78.871461
716.200	79.122421
716.409	79.236658
716.617	79.447527
716.826	79.677837
717.034	79.802918
717.242	79.882652
717.451	80.180504
717.659	80.499105
717.868	80.493851
718.076	80.021809
718.284	79.440680
718.493	79.035466
718.701	78.695646
718.909	78.395554
719.118	78.133193
719.326	77.821027
719.534	77.653780
719.742	77.304977
719.951	76.892454
720.159	77.030543
720.367	77.506152
720.575	77.801225
720.783	77.906021
720.991	78.172075
721.199	78.349713
721.408	78.288391
721.616	78.240701
721.824	78.263282
722.032	78.540077
722.240	78.745656
722.448	78.563029
722.656	78.195213
722.864	78.134983
723.072	78.183645
723.280	77.920230
723.487	77.597573
723.695	77.610869
723.903	77.796704
724.111	77.661464
724.319	77.252510
724.527	76.891208
724.735	76.564296
724.942	76.364001
725.150	76.077449
725.358	76.009289
725.566	76.305686
725.773	76.540036
725.981	76.477531
726.189	76.401938
726.396	76.498977
726.604	76.688171
726.812	76.802563
727.019	76.981194
727.227	77.148120
727.435	77.531419
727.642	77.685878
727.850	77.423303
728.057	76.994824
728.265	76.654657
728.472	76.451509
728.680	76.506205
728.887	76.486913
729.095	76.439881
729.302	76.417150
729.509	76.194397
729.717	75.762154
729.924	75.469132
730.132	75.276324
730.339	75.218532
730.546	75.431565
730.753	75.741841
730.961	75.751328
731.168	75.778795
731.375	76.009363
731.583	76.108991
731.790	76.278598
731.997	76.431009
732.204	76.337475
732.411	76.285533
732.618	76.426276
732.826	76.428006
733.033	76.192036
733.240	76.059760
733.447	75.796299
733.654	75.448709
733.861	75.313024
734.068	75.186500
734.275	75.044593
734.482	74.958772
734.689	74.918208
734.896	74.992793
735.103	75.139742
735.310	75.410249
735.517	75.663399
735.724	76.034131
735.931	76.323098
736.137	76.442685
736.344	76.660777
736.551	76.790955
736.758	76.764353
736.965	76.565215
737.171	75.961565
737.378	75.171531
737.585	74.503475
737.792	73.978951
737.998	73.634614
738.205	73.555850
738.412	73.262851
738.618	72.649732
738.825	71.829679
739.032	71.059989
739.238	70.427400
739.445	69.992528
739.651	69.762319
739.858	69.653099
740.064	69.539480
740.271	69.324119
740.477	68.804818
740.684	68.300843
740.890	67.860224
741.097	67.662949
741.303	67.733770
741.510	68.015218
741.716	68.411094
741.922	68.859040
742.129	69.025796
742.335	68.889716
742.541	68.499351
742.748	68.179031
742.954	68.440166
743.160	69.082310
743.366	69.611947
743.573	69.720516
743.779	69.529223
743.985	69.206521
744.191	68.782483
744.397	68.652307
744.604	69.010297
744.810	69.449033
745.016	69.668820
745.222	69.541357
745.428	69.279395
745.634	69.110921
745.840	69.064922
746.046	68.882366
746.252	68.668862
746.458	68.404732
746.664	67.909639
746.870	67.170869
747.076	66.786356
747.282	66.837623
747.488	66.797258
747.694	66.573035
747.900	66.362412
748.105	66.440770
748.311	66.809990
748.517	66.948587
748.723	67.016874
748.929	67.038326
749.134	67.126934
749.340	67.036253
749.546	66.923633
749.752	67.131806
749.957	67.409096
750.163	67.547572
750.369	67.446483
750.574	67.310918
750.780	67.349704
750.985	67.501069
751.191	67.743431
751.397	67.780651
751.602	67.614522
751.808	67.187974
752.013	66.421333
752.219	65.832353
752.424	65.680769
752.630	65.621240
752.835	65.331265
753.041	65.121654
753.246	64.784316
753.451	64.341045
753.657	64.058770
753.862	63.991542
754.067	64.002542
754.273	64.275039
754.478	64.284336
754.683	63.976149
754.889	63.537453
755.094	63.144333
755.299	62.890903
755.504	62.629646
755.710	62.349730
755.915	62.016447
756.120	61.637485
756.325	61.401092
756.530	61.020910
756.735	60.715326
756.940	60.425309
757.146	60.311326
757.351	60.330872
757.556	60.278322
757.761	60.376119
757.966	60.433391
758.171	60.314166
758.376	60.079067
758.581	59.724247
758.786	59.431605
758.990	59.140658
759.195	58.904412
759.400	58.372326
759.605	57.673984
759.810	57.055763
760.015	56.602785
760.220	56.191001
760.424	55.883330
760.629	55.601155
760.834	55.512731
761.039	55.474344
761.244	55.414837
761.448	55.380991
761.653	55.669260
761.858	56.086002
762.062	56.253646
762.267	56.183318
762.472	55.968955
762.676	55.755895
762.881	55.611479
763.085	55.239295
763.290	54.767164
763.494	54.074907
763.699	53.194518
763.903	52.297153
764.108	51.469235
764.312	50.842442
764.517	50.374623
764.721	50.164018
764.926	49.974104
765.130	49.686805
765.335	49.460230
765.539	49.118272
765.743	48.992119
765.948	49.142403
766.152	49.243533
766.356	49.214326
766.560	49.167029
766.765	48.944216
766.969	48.622849
767.173	48.271455
767.377	47.950007
767.582	47.567505
767.786	47.462834
767.990	47.446447
768.194	47.137838
768.398	46.742260
768.602	46.401033
768.806	46.040826
769.010	45.707694
769.215	45.298571
769.419	45.009611
769.623	44.869742
769.827	44.691352
770.031	44.218304
770.234	43.761887
770.438	43.465846
770.642	43.242038
770.846	43.044581
771.050	42.894600
771.254	42.735143
771.458	42.666819
771.662	42.414090
771.866	42.087638
772.069	41.744859
772.273	41.381793
772.477	40.745476
772.681	40.032256
772.885	39.278645
773.088	38.575617
773.292	37.810204
773.496	37.082846
773.699	36.388348
773.903	35.781099
774.107	35.268448
774.310	34.894319
774.514	34.648952
774.717	34.620147
774.921	34.642230
775.124	34.656257
775.328	34.586164
775.531	34.473546
775.735	34.364388
775.938	34.170878
776.142	33.906337
776.345	33.546942
776.549	33.193848
776.752	32.871548
776.956	32.637817
777.159	32.311953
777.362	31.839669
777.566	31.453448
777.769	31.080557
777.972	30.697605
778.176	30.335616
778.379	29.966706
778.582	29.606101
778.785	29.332946
778.989	29.032436
779.192	28.590854
779.395	28.185229
779.598	27.754565
779.801	27.240150
780.004	26.845812
780.207	26.392743
780.411	25.888427
780.614	25.453414
780.817	25.077136
781.020	24.617524
781.223	24.290739
781.426	23.972667
781.629	23.625331
781.832	23.410607
782.035	23.245764
782.238	22.984670
782.440	22.774789
782.643	22.546062
782.846	22.326502
783.049	22.056131
783.252	21.754466
783.455	21.357174
783.658	20.947585
783.860	20.598772
784.063	20.293033
784.266	19.998053
784.469	19.732761
784.671	19.376659
784.874	19.074481
785.077	18.814852
785.279	18.504441
785.482	18.225188
785.685	17.847834
785.887	17.440142
786.090	17.125208
786.293	16.861502
786.495	16.591648
786.698	16.274329
786.900	16.125396
787.103	16.067273
787.305	15.933222
787.508	15.718427
787.710	15.575097
787.913	15.488424
788.115	15.408846
788.317	15.270607
788.520	15.139869
788.722	14.935093
788.924	14.722062
789.127	14.446183
789.329	14.149322
789.531	13.939939
789.734	13.791893
789.936	13.517902
790.138	13.231974
790.340	12.919608
790.543	12.674462
790.745	12.452183
790.947	12.271453
791.149	12.195334
791.351	12.127368
791.553	11.949838
791.756	11.755353
791.958	11.660274
792.160	11.703008
792.362	11.841107
792.564	11.948616
792.766	11.866121
792.968	11.838198
793.170	11.734739
793.372	11.557483
793.574	11.357783
793.776	11.197109
793.978	11.107133
794.180	10.868317
794.381	10.597480
794.583	10.277396
794.785	10.094385
794.987	10.167690
795.189	10.145678
795.391	10.173294
795.592	10.202468
795.794	10.183025
795.996	10.254359
796.198	10.239527
796.399	10.328557
796.601	10.389866
796.803	10.402627
797.004	10.389537
797.206	10.414761
797.407	10.445126
797.609	10.468684
797.811	10.507566
798.012	10.621900
798.214	10.571915
798.415	10.519016
798.617	10.618541
798.818	10.658941
799.020	10.754534
799.221	10.903252
799.423	10.869128
799.624	10.826785
799.826	10.836882
800.027	10.917699
800.228	10.989378
800.430	11.173860
800.631	11.361092
800.832	11.431315
801.034	11.630579
801.235	11.795692
801.436	11.871031
801.637	12.055310
801.839	12.312454
802.040	12.547279
802.241	12.781221
802.442	13.058610
802.643	13.332761
802.844	13.565808
803.046	13.775067
803.247	13.815437
803.448	13.973075
803.649	14.201461
803.850	14.518137
804.051	14.796351
804.252	15.029445
804.453	15.133883
804.654	15.174532
804.855	15.245223
805.056	15.539286
805.257	15.788001
805.458	16.125361
805.659	16.343441
805.859	16.456229
806.060	16.439956
806.261	16.437183
806.462	16.565456
806.663	16.794158
806.864	17.142010
807.064	17.463433
807.265	17.566369
807.466	17.810426
807.667	18.163428
807.867	18.513169
808.068	18.886716
808.269	19.261052
808.469	19.601786
808.670	19.894910
808.870	20.181718
809.071	20.360280
809.272	20.544903
809.472	20.796748
809.673	20.999248
809.873	21.176679
810.074	21.367476
810.274	21.620342
810.475	21.868310
810.675	22.042926
810.876	22.181163
811.076	22.370894
811.276	22.676745
811.477	23.019226
811.677	23.348686
811.878	23.613726
812.078	23.811351
812.278	24.025365
812.479	24.316454
812.679	24.662811
812.879	25.089198
813.079	25.348554
813.280	25.603123
813.480	25.846590
813.680	26.053032
813.880	26.181798
814.080	26.323764
814.280	26.576061
814.480	27.101721
814.681	27.515803
814.881	27.820756
815.081	28.166227
815.281	28.730640
815.481	29.218568
815.681	29.678745
815.881	30.075565
816.081	30.484880
816.281	30.871443
816.481	31.337758
816.681	31.555932
816.880	31.804367
817.080	32.068538
817.280	32.299948
817.480	32.510370
817.680	32.637962
817.880	32.827273
818.080	32.906735
818.279	33.027305
818.479	33.150581
818.679	33.245057
818.879	33.490702
819.078	33.771022
819.278	34.083021
819.478	34.384465
819.677	34.660141
819.877	35.048921
820.077	35.303707
820.276	35.933796
820.476	36.488211
820.675	36.873270
820.875	37.082603
821.074	37.116818
821.274	37.071393
821.473	37.124016
821.673	37.255265
821.872	37.432160
822.072	37.699406
822.271	38.034419
822.471	38.227438
822.670	38.405014
822.869	38.818566
823.069	39.218065
823.268	39.653678
823.467	40.127023
823.667	40.485765
823.866	40.687219
824.065	40.935663
824.265	41.135212
824.464	41.247163
824.663	41.264953
824.862	41.406329
825.061	41.619087
825.261	41.697627
825.460	41.706800
825.659	41.800476
825.858	41.801494
826.057	42.137269
826.256	42.606763
826.455	42.975621
826.654	43.292345
826.853	43.669611
827.052	43.994223
827.251	44.201759
