Date	2025年07月03日木曜日 09時48分45秒
Spectrometers	SR401765
ダーク	使用
リファレンス	使用
積分時間[msec]	300
平均回数	1
ｽﾑｰｼﾞﾝｸﾞ	5
Electrical Dark	USE
ピクセル数	3648
計測モード	反射率
保存開始波長[nm]	598.495
保存終了波長[nm]	1274.802
保存ﾋﾟｯﾁ波長[nm]	全波長

>>>>>>>>>> Data Start <<<<<<<<<<<<
598.495	99.974092
598.713	99.974092
598.931	99.974092
599.148	99.974092
599.366	0.000000
599.584	0.000000
599.802	0.000000
600.020	0.000000
600.238	0.000000
600.455	-30.970460
600.673	-43.464656
600.891	21.524846
601.109	25.922642
601.326	27.276857
601.544	27.339112
601.762	27.313947
601.979	27.403825
602.197	27.595297
602.415	27.786794
602.632	27.843966
602.850	28.076013
603.067	28.229086
603.285	28.565502
603.502	28.755997
603.720	28.835320
603.938	28.902952
604.155	29.064203
604.372	29.280054
604.590	29.491580
604.807	29.522576
605.025	29.614530
605.242	29.768325
605.460	29.992060
605.677	30.005809
605.894	30.026074
606.112	30.096229
606.329	30.377486
606.546	30.586992
606.764	30.862729
606.981	31.079009
607.198	31.287856
607.415	31.484681
607.633	31.668866
607.850	31.913434
608.067	32.164311
608.284	32.451563
608.501	32.745128
608.718	32.726335
608.935	32.673158
609.153	32.597119
609.370	32.685422
609.587	32.887446
609.804	33.208855
610.021	33.528754
610.238	33.579244
610.455	33.670937
610.672	33.819029
610.889	33.970525
611.106	34.245695
611.323	34.578760
611.540	34.872538
611.756	35.059836
611.973	35.336861
612.190	35.527406
612.407	35.627868
612.624	35.682514
612.841	35.743976
613.057	36.009334
613.274	36.229372
613.491	36.512260
613.708	36.593516
613.925	36.725556
614.141	36.802104
614.358	36.831910
614.575	36.945415
614.791	36.956470
615.008	37.098678
615.225	37.429560
615.441	37.581423
615.658	37.650965
615.874	37.812048
616.091	38.155061
616.307	38.467891
616.524	38.695043
616.740	38.946718
616.957	39.073700
617.173	39.253449
617.390	39.608930
617.606	39.938145
617.823	40.145716
618.039	40.302339
618.256	40.553423
618.472	40.709145
618.688	40.832263
618.905	41.189142
619.121	41.475045
619.337	41.715452
619.554	42.048271
619.770	42.184918
619.986	42.293492
620.202	42.565688
620.419	42.799847
620.635	42.772933
620.851	43.026369
621.067	43.341785
621.283	43.355825
621.499	43.312374
621.716	43.539866
621.932	43.692676
622.148	43.858039
622.364	44.027090
622.580	44.354398
622.796	44.822233
623.012	45.269843
623.228	45.429680
623.444	45.709972
623.660	46.135037
623.876	46.491476
624.092	46.595837
624.308	47.025618
624.524	47.557291
624.740	47.840423
624.955	47.829248
625.171	47.793399
625.387	47.970378
625.603	48.135752
625.819	48.140494
626.034	48.338337
626.250	48.661915
626.466	49.025030
626.682	49.273324
626.897	49.394535
627.113	49.591356
627.329	49.711061
627.544	49.828246
627.760	49.937475
627.976	50.355592
628.191	50.938917
628.407	51.081324
628.623	51.171224
628.838	51.311631
629.054	51.181468
629.269	51.133842
629.485	51.259024
629.700	51.538531
629.916	51.961225
630.131	52.287641
630.347	52.405205
630.562	52.372585
630.777	52.688049
630.993	53.016312
631.208	53.282094
631.424	53.699091
631.639	54.136437
631.854	54.619886
632.070	54.937000
632.285	55.045367
632.500	55.266108
632.715	55.443716
632.931	55.530562
633.146	55.614789
633.361	55.765084
633.576	55.893831
633.791	55.972919
634.007	56.078311
634.222	56.045400
634.437	56.066600
634.652	56.202394
634.867	56.325624
635.082	56.426622
635.297	56.655198
635.512	56.848960
635.727	56.977457
635.942	57.141443
636.157	57.474667
636.372	57.804548
636.587	57.998429
636.802	58.124155
637.017	58.161883
637.232	58.163490
637.447	58.331335
637.662	58.347484
637.876	58.351997
638.091	58.272987
638.306	58.205296
638.521	58.173866
638.736	58.051781
638.951	57.990327
639.165	58.171256
639.380	58.396409
639.595	58.542815
639.809	58.830352
640.024	59.215316
640.239	59.318186
640.453	59.672369
640.668	60.126432
640.883	60.144099
641.097	60.332356
641.312	60.584341
641.526	60.736303
641.741	60.952737
641.955	61.268925
642.170	61.534673
642.384	61.725116
642.599	62.002281
642.813	62.169666
643.028	62.304830
643.242	62.748060
643.457	62.944453
643.671	63.288488
643.885	63.830192
644.100	64.247047
644.314	64.425245
644.528	64.363967
644.743	64.608756
644.957	65.029545
645.171	65.209814
645.386	65.021300
645.600	64.897989
645.814	64.953497
646.028	64.948023
646.242	64.701980
646.457	64.373019
646.671	64.061802
646.885	64.036706
647.099	63.942284
647.313	63.939531
647.527	64.221150
647.741	64.603190
647.955	64.806336
648.169	64.863976
648.383	64.753246
648.597	64.811093
648.811	65.349668
649.025	66.071699
649.239	66.293013
649.453	66.117519
649.667	65.878681
649.881	65.666601
650.095	65.678066
650.309	65.818179
650.523	65.993982
650.737	66.107041
650.950	66.120060
651.164	65.891376
651.378	65.568317
651.592	65.547852
651.805	65.814101
652.019	65.998804
652.233	66.061920
652.447	66.033464
652.660	66.015960
652.874	66.181435
653.088	66.550529
653.301	66.878106
653.515	67.050372
653.728	67.184720
653.942	67.198304
654.156	67.257489
654.369	67.470416
654.583	67.740446
654.796	68.044900
655.010	68.217051
655.223	68.127339
655.437	68.021708
655.650	68.096202
655.863	68.317527
656.077	68.516889
656.290	68.782970
656.504	68.798043
656.717	68.721904
656.930	68.787049
657.144	68.933492
657.357	69.089017
657.570	69.178577
657.783	69.204301
657.997	69.289814
658.210	69.322581
658.423	69.426249
658.636	69.603248
658.849	69.845615
659.063	69.991911
659.276	69.964169
659.489	69.835981
659.702	69.829028
659.915	69.828850
660.128	69.759170
660.341	69.601949
660.554	69.526645
660.767	69.451133
660.980	69.268155
661.193	69.306505
661.406	69.285996
661.619	69.203111
661.832	69.506664
662.045	69.801275
662.258	70.242212
662.471	70.631273
662.684	70.823965
662.897	71.079888
663.110	71.367332
663.322	71.740019
663.535	72.052199
663.748	72.343087
663.961	72.775709
664.174	72.862373
664.386	72.700795
664.599	72.447171
664.812	72.271266
665.024	72.328960
665.237	72.203310
665.450	72.122831
665.662	72.182557
665.875	72.157714
666.088	72.365336
666.300	72.507721
666.513	72.628529
666.725	72.760035
666.938	73.197964
667.150	73.842226
667.363	74.256701
667.575	74.739984
667.788	75.295958
668.000	75.707058
668.213	75.799732
668.425	75.658686
668.638	75.707544
668.850	75.738915
669.062	75.919562
669.275	75.989142
669.487	75.789656
669.699	75.475295
669.912	75.313674
670.124	75.119119
670.336	74.932070
670.548	75.168085
670.761	75.475578
670.973	75.477331
671.185	75.437410
671.397	75.270135
671.609	74.945868
671.822	74.854246
672.034	75.076047
672.246	75.161768
672.458	75.174432
672.670	75.165552
672.882	75.064033
673.094	74.874598
673.306	74.780950
673.518	74.890461
673.730	74.911568
673.942	74.858251
674.154	74.906891
674.366	74.891673
674.578	75.011302
674.790	75.200320
675.002	75.224178
675.214	75.096449
675.425	75.114174
675.637	75.063339
675.849	74.830306
676.061	74.838418
676.273	75.001748
676.484	75.035804
676.696	75.202423
676.908	75.429573
677.120	75.511150
677.331	75.630184
677.543	75.850367
677.755	75.866367
677.966	75.921384
678.178	76.183861
678.389	76.585491
678.601	76.931797
678.813	77.192773
679.024	77.162922
679.236	76.989273
679.447	77.049305
679.659	77.252412
679.870	77.414197
680.082	77.610377
680.293	77.756434
680.505	77.669406
680.716	77.471499
680.927	77.390015
681.139	77.300013
681.350	77.358085
681.562	77.204137
681.773	76.871226
681.984	76.629380
682.196	76.404673
682.407	76.505995
682.618	76.942513
682.829	77.184057
683.041	77.234204
683.252	77.321793
683.463	77.540694
683.674	77.636349
683.885	77.801790
684.097	77.934483
684.308	77.865945
684.519	77.752178
684.730	77.493410
684.941	77.117464
685.152	77.197889
685.363	77.491942
685.574	77.376996
685.785	76.998546
685.996	76.669646
686.207	76.506258
686.418	76.682499
686.629	77.214918
686.840	77.791802
687.051	78.208321
687.262	78.321059
687.473	78.076596
687.684	77.722538
687.894	77.792474
688.105	78.218384
688.316	78.606864
688.527	78.672640
688.738	78.316922
688.948	77.547641
689.159	76.730547
689.370	75.960335
689.580	75.600757
689.791	75.730144
690.002	75.984250
690.212	76.186676
690.423	76.111448
690.634	76.186387
690.844	76.565800
691.055	77.121513
691.266	77.651747
691.476	78.228342
691.687	78.762760
691.897	78.959898
692.108	79.003494
692.318	79.043348
692.529	78.865217
692.739	78.629007
692.949	78.219413
693.160	78.012472
693.370	77.975693
693.581	77.970990
693.791	77.915585
694.001	78.132658
694.212	78.637898
694.422	78.948319
694.632	79.107211
694.843	79.482099
695.053	80.114778
695.263	80.594552
695.473	80.639984
695.683	80.505778
695.894	80.507023
696.104	80.538782
696.314	80.322588
696.524	79.896458
696.734	79.526549
696.944	79.359885
697.154	79.050353
697.365	78.437008
697.575	78.073537
697.785	77.949007
697.995	77.816047
698.205	77.673002
698.415	77.762011
698.625	78.054016
698.834	78.245009
699.044	78.331181
699.254	78.423068
699.464	78.555971
699.674	78.536615
699.884	78.509701
700.094	78.640314
700.304	78.980318
700.513	79.110899
700.723	78.794859
700.933	78.446548
701.143	78.433198
701.353	78.544337
701.562	78.487052
701.772	78.372231
701.982	78.517678
702.191	78.549666
702.401	78.402531
702.611	78.062232
702.820	78.231481
703.030	78.636510
703.239	78.824755
703.449	78.970535
703.659	78.995814
703.868	78.831721
704.078	78.995335
704.287	79.371111
704.497	79.833439
704.706	80.066793
704.916	80.171823
705.125	79.938423
705.334	79.679829
705.544	79.371774
705.753	78.707854
705.962	78.332611
706.172	78.219233
706.381	77.732347
706.590	77.126130
706.800	76.567620
707.009	76.220664
707.218	75.795317
707.428	75.420043
707.637	75.250274
707.846	75.208472
708.055	75.301900
708.264	75.393622
708.474	75.604908
708.683	75.804476
708.892	75.907375
709.101	76.059130
709.310	76.223425
709.519	76.659717
709.728	77.007217
709.937	77.121648
710.146	77.184781
710.355	77.187062
710.564	77.075775
710.773	77.042829
710.982	77.492408
711.191	78.081849
711.400	78.674386
711.609	79.148648
711.818	79.361425
712.027	79.406742
712.235	79.603309
712.444	79.902036
712.653	79.993845
712.862	79.914580
713.071	79.613059
713.279	79.088657
713.488	78.700883
713.697	78.315188
713.906	77.933827
714.114	77.707459
714.323	77.550842
714.532	77.221821
714.740	76.841251
714.949	76.798010
715.157	76.824639
715.366	76.783774
715.575	76.807684
715.783	76.934957
715.992	77.058038
716.200	77.179031
716.409	77.172112
716.617	77.437664
716.826	77.894622
717.034	78.299791
717.242	78.574356
717.451	78.700213
717.659	78.769989
717.868	78.794203
718.076	78.857725
718.284	78.836139
718.493	78.704740
718.701	78.715100
718.909	78.544604
719.118	78.015966
719.326	77.450246
719.534	77.045990
719.742	77.093190
719.951	77.367432
720.159	77.569387
720.367	77.572376
720.575	77.465498
720.783	77.352543
720.991	77.343325
721.199	77.439636
721.408	77.793579
721.616	78.306298
721.824	78.907537
722.032	79.273086
722.240	79.393038
722.448	79.364176
722.656	79.090712
722.864	78.936737
723.072	78.941849
723.280	78.735452
723.487	78.451126
723.695	78.088376
723.903	77.620210
724.111	77.082176
724.319	76.569993
724.527	76.119138
724.735	75.776532
724.942	75.660387
725.150	75.640521
725.358	75.640250
725.566	75.867175
725.773	76.240812
725.981	76.610994
726.189	76.827240
726.396	76.835277
726.604	76.741793
726.812	76.627741
727.019	76.651840
727.227	76.718522
727.435	76.922223
727.642	77.093550
727.850	76.987355
728.057	76.568241
728.265	76.084565
728.472	75.766981
728.680	75.721101
728.887	75.715252
729.095	75.759998
729.302	75.819482
729.509	75.752308
729.717	75.352786
729.924	74.962271
730.132	74.932572
730.339	75.138514
730.546	75.493456
730.753	76.029044
730.961	76.315272
731.168	76.486916
731.375	76.823621
731.583	76.935114
731.790	76.828651
731.997	76.851046
732.204	76.902067
732.411	76.572099
732.618	76.050189
732.826	75.663814
733.033	75.334661
733.240	75.173419
733.447	75.156998
733.654	75.080099
733.861	75.213212
734.068	75.379700
734.275	75.399261
734.482	75.309730
734.689	75.509630
734.896	76.110127
735.103	76.548127
735.310	76.594625
735.517	76.531748
735.724	76.436562
735.931	76.254923
736.137	75.991242
736.344	75.749508
736.551	75.675316
736.758	75.446559
736.965	74.729901
737.171	73.527274
737.378	72.433361
737.585	71.996581
737.792	71.884037
737.998	71.773125
738.205	71.674655
738.412	71.374738
738.618	71.081118
738.825	70.779806
739.032	70.765148
739.238	71.020120
739.445	71.359103
739.651	71.670741
739.858	71.856139
740.064	71.976509
740.271	72.048490
740.477	72.031159
740.684	72.063141
740.890	72.112490
741.097	72.120793
741.303	72.097575
741.510	72.164260
741.716	72.408207
741.922	72.708421
742.129	72.695447
742.335	72.430936
742.541	72.407275
742.748	72.444152
742.954	72.451809
743.160	72.396575
743.366	72.293871
743.573	72.186182
743.779	72.088125
743.985	72.009348
744.191	71.916464
744.397	71.995128
744.604	72.241421
744.810	72.129551
745.016	71.964886
745.222	71.964418
745.428	72.142958
745.634	72.289160
745.840	72.232203
746.046	71.888977
746.252	71.373170
746.458	70.937566
746.664	70.578239
746.870	70.203216
747.076	70.137948
747.282	70.367429
747.488	70.516554
747.694	70.541917
747.900	70.443564
748.105	70.493077
748.311	70.788851
748.517	71.139678
748.723	71.459976
748.929	71.762446
749.134	72.061417
749.340	72.101217
749.546	71.926896
749.752	71.815510
749.957	71.802882
750.163	72.037575
750.369	72.164898
750.574	72.016455
750.780	71.642740
750.985	71.473308
751.191	71.399556
751.397	71.240070
751.602	71.052002
751.808	70.601386
752.013	70.017764
752.219	69.648983
752.424	69.544219
752.630	69.599148
752.835	69.790183
753.041	70.196686
753.246	70.384358
753.451	70.326688
753.657	70.220718
753.862	70.078422
754.067	70.217164
754.273	70.582079
754.478	70.580718
754.683	70.333039
754.889	69.912997
755.094	69.269073
755.299	68.869880
755.504	68.513755
755.710	68.349090
755.915	68.344470
756.120	68.407005
756.325	68.455756
756.530	68.275345
756.735	67.965113
756.940	67.523425
757.146	67.176960
757.351	67.200826
757.556	67.159578
757.761	67.194874
757.966	67.125223
758.171	66.823763
758.376	66.512192
758.581	66.165410
758.786	65.925442
758.990	65.954954
759.195	66.189080
759.400	66.392327
759.605	66.259860
759.810	66.072324
760.015	65.854767
760.220	65.394245
760.424	65.040829
760.629	64.612576
760.834	64.129696
761.039	63.714863
761.244	63.530486
761.448	63.495517
761.653	63.614283
761.858	63.935633
762.062	64.038407
762.267	64.041895
762.472	64.022850
762.676	63.744066
762.881	63.535261
763.085	63.299357
763.290	63.066147
763.494	62.575965
763.699	61.984539
763.903	61.351306
764.108	60.781912
764.312	60.312360
764.517	59.847212
764.721	59.648051
764.926	59.781475
765.130	60.137372
765.335	60.444369
765.539	60.505061
765.743	60.586513
765.948	60.562523
766.152	60.501330
766.356	60.216083
766.560	60.049725
766.765	59.956346
766.969	59.801091
767.173	59.661793
767.377	59.408001
767.582	59.210910
767.786	59.222925
767.990	59.236709
768.194	59.152285
768.398	59.187960
768.602	59.356045
768.806	59.491545
769.010	59.531188
769.215	59.463876
769.419	59.418882
769.623	59.471410
769.827	59.363090
770.031	59.030838
770.234	58.642956
770.438	58.430455
770.642	57.997065
770.846	57.610653
771.050	57.250441
771.254	56.816923
771.458	56.587711
771.662	56.375389
771.866	56.004089
772.069	55.839554
772.273	55.729610
772.477	55.542020
772.681	55.190986
772.885	54.967602
773.088	54.825373
773.292	54.620601
773.496	54.477519
773.699	54.368423
773.903	54.334518
774.107	54.128936
774.310	53.667381
774.514	53.145216
774.717	52.747749
774.921	52.388674
775.124	52.064557
775.328	51.876126
775.531	51.752395
775.735	51.679054
775.938	51.503631
776.142	51.060657
776.345	50.761455
776.549	50.794670
776.752	51.049905
776.956	51.416452
777.159	51.723868
777.362	51.868735
777.566	51.758327
777.769	51.584787
777.972	51.324717
778.176	50.919736
778.379	50.514256
778.582	50.228615
778.785	49.854428
778.989	49.271294
779.192	48.461546
779.395	47.744348
779.598	47.103947
779.801	46.582558
780.004	46.109404
780.207	45.645018
780.411	45.252605
780.614	44.859429
780.817	44.489995
781.020	44.143355
781.223	43.973511
781.426	43.965809
781.629	43.952641
781.832	43.955903
782.035	44.009913
782.238	43.955326
782.440	43.773330
782.643	43.489399
782.846	43.355605
783.049	43.239132
783.252	43.077958
783.455	42.868913
783.658	42.637383
783.860	42.386058
784.063	42.181370
784.266	41.792699
784.469	41.369092
784.671	40.985248
784.874	40.726500
785.077	40.508931
785.279	40.090783
785.482	39.807963
785.685	39.531478
785.887	39.223839
786.090	38.940726
786.293	38.585179
786.495	38.268666
786.698	38.008948
786.900	37.753392
787.103	37.483679
787.305	37.024709
787.508	36.652396
787.710	36.470398
787.913	36.296559
788.115	35.932399
788.317	35.502252
788.520	35.055521
788.722	34.587146
788.924	34.153126
789.127	33.766303
789.329	33.486127
789.531	33.290833
789.734	32.998283
789.936	32.418241
790.138	32.011581
790.340	31.709029
790.543	31.316144
790.745	30.983990
790.947	30.745954
791.149	30.661624
791.351	30.585677
791.553	30.316423
791.756	30.056955
791.958	29.937421
792.160	29.831915
792.362	29.627132
792.564	29.413174
792.766	29.228840
792.968	28.985245
793.170	28.559885
793.372	27.989095
793.574	27.466265
793.776	27.006325
793.978	26.547452
794.180	25.966746
794.381	25.367270
794.583	24.715989
794.785	24.182388
794.987	23.814369
795.189	23.472520
795.391	23.147830
795.592	22.840963
795.794	22.505084
795.996	22.193999
796.198	21.883773
796.399	21.649858
796.601	21.410128
796.803	21.132750
797.004	20.896890
797.206	20.606855
797.407	20.312558
797.609	20.023786
797.811	19.585317
798.012	19.303321
798.214	18.986684
798.415	18.598784
798.617	18.335279
798.818	18.108901
799.020	17.878160
799.221	17.587190
799.423	17.197042
799.624	16.789296
799.826	16.465725
800.027	16.294041
800.228	15.982449
800.430	15.680192
800.631	15.432736
800.832	15.092940
801.034	14.804798
801.235	14.623855
801.436	14.427993
801.637	14.322024
801.839	14.258602
802.040	14.163441
802.241	14.018682
802.442	13.813663
802.643	13.667579
802.844	13.498661
803.046	13.298015
803.247	13.001141
803.448	12.680280
803.649	12.465007
803.850	12.250854
804.051	12.028404
804.252	11.760508
804.453	11.463093
804.654	11.303309
804.855	11.004683
805.056	10.864122
805.257	10.696083
805.458	10.554199
805.659	10.416777
805.859	10.234186
806.060	10.076093
806.261	9.905616
806.462	9.697335
806.663	9.599010
806.864	9.440332
807.064	9.385818
807.265	9.251800
807.466	9.217355
807.667	9.196330
807.867	9.046147
808.068	8.859643
808.269	8.796027
808.469	8.673342
808.670	8.686736
808.870	8.609984
809.071	8.551345
809.272	8.431664
809.472	8.339795
809.673	8.181056
809.873	8.068365
810.074	7.988957
810.274	7.931366
810.475	7.831262
810.675	7.860564
810.876	7.865006
811.076	7.915327
811.276	7.924524
811.477	7.959154
811.677	7.970787
811.878	7.996527
812.078	7.961905
812.278	7.899228
812.479	7.898990
812.679	7.945363
812.879	7.953016
813.079	7.881986
813.280	7.787898
813.480	7.779251
813.680	7.740913
813.880	7.730603
814.080	7.870085
814.280	7.965419
814.480	8.144510
814.681	8.251817
814.881	8.249800
815.081	8.226376
815.281	8.291658
815.481	8.437012
815.681	8.543365
815.881	8.803910
816.081	8.924759
816.281	8.851404
816.481	8.926653
816.681	9.058524
816.880	9.193827
817.080	9.364304
817.280	9.575510
817.480	9.798686
817.680	9.873216
817.880	9.980706
818.080	9.987754
818.279	10.149123
818.479	10.351138
818.679	10.532547
818.879	10.784293
819.078	10.972670
819.278	11.079807
819.478	11.131940
819.677	11.242214
819.877	11.544511
820.077	11.798562
820.276	12.045595
820.476	12.218829
820.675	12.459275
820.875	12.646889
821.074	12.685662
821.274	12.803973
821.473	12.982701
821.673	13.153478
821.872	13.270323
822.072	13.356913
822.271	13.460053
822.471	13.696777
822.670	13.912122
822.869	14.088047
823.069	14.384993
823.268	14.680448
823.467	14.907029
823.667	15.232207
823.866	15.531199
824.065	15.768808
824.265	15.962836
824.464	16.099973
824.663	16.260197
824.862	16.598813
825.061	17.013844
825.261	17.122936
825.460	17.199277
825.659	17.504251
825.858	17.734221
826.057	18.010460
826.256	18.289552
826.455	18.548984
826.654	18.938521
826.853	19.232229
827.052	19.364593
827.251	19.600906
827.450	19.949793
827.649	20.269708
827.848	20.397348
