Date	2025年07月03日木曜日 09時54分20秒
Spectrometers	SR401765
ダーク	使用
リファレンス	使用
積分時間[msec]	300
平均回数	1
ｽﾑｰｼﾞﾝｸﾞ	5
Electrical Dark	USE
ピクセル数	3648
計測モード	反射率
保存開始波長[nm]	598.495
保存終了波長[nm]	1274.802
保存ﾋﾟｯﾁ波長[nm]	全波長

>>>>>>>>>> Data Start <<<<<<<<<<<<
598.495	-462.870799
598.713	-462.870799
598.931	-462.870799
599.148	-462.870799
599.366	0.000000
599.584	0.000000
599.802	-2911.857649
600.020	7.213046
600.238	72.609716
600.455	134.823890
600.673	86.229459
600.891	32.303351
601.109	31.733050
601.326	31.305554
601.544	30.940488
601.762	30.780050
601.979	30.812060
602.197	30.898053
602.415	30.972319
602.632	31.023780
602.850	31.065885
603.067	31.279225
603.285	31.456239
603.502	31.636733
603.720	31.846988
603.938	32.142727
604.155	32.484231
604.372	32.572645
604.590	32.650016
604.807	32.763460
605.025	32.864784
605.242	33.051994
605.460	33.085072
605.677	33.150489
605.894	33.149638
606.112	33.265002
606.329	33.530758
606.546	33.702278
606.764	34.229478
606.981	34.597634
607.198	34.742440
607.415	34.899984
607.633	35.100778
607.850	35.328666
608.067	35.494344
608.284	35.752450
608.501	35.958732
608.718	35.998559
608.935	36.046155
609.153	36.157625
609.370	36.305141
609.587	36.484123
609.804	36.675499
610.021	36.809246
610.238	36.939535
610.455	36.969495
610.672	36.993764
610.889	37.043960
611.106	37.249921
611.323	37.447077
611.540	37.587743
611.756	37.730204
611.973	37.727125
612.190	37.834426
612.407	37.979325
612.624	38.200931
612.841	38.588693
613.057	38.788789
613.274	38.963267
613.491	39.278210
613.708	39.774065
613.925	39.966743
614.141	39.977567
614.358	40.323744
614.575	40.629375
614.791	40.884909
615.008	41.133664
615.225	41.375566
615.441	41.762608
615.658	42.116214
615.874	42.147034
616.091	42.089895
616.307	42.300572
616.524	42.778978
616.740	43.020039
616.957	43.131197
617.173	43.330753
617.390	43.578374
617.606	43.796766
617.823	43.959303
618.039	44.204818
618.256	44.638105
618.472	45.045518
618.688	45.322095
618.905	45.425850
619.121	45.690410
619.337	46.037257
619.554	46.247954
619.770	46.286155
619.986	46.427197
620.202	46.698964
620.419	46.975411
620.635	47.161852
620.851	47.284421
621.067	47.449211
621.283	47.622576
621.499	47.685736
621.716	47.635145
621.932	47.702107
622.148	47.886671
622.364	47.965192
622.580	47.943082
622.796	47.890042
623.012	47.860400
623.228	47.898799
623.444	47.858481
623.660	47.929605
623.876	48.183937
624.092	48.681221
624.308	49.129044
624.524	49.481555
624.740	49.864013
624.955	50.215320
625.171	50.513839
625.387	50.693326
625.603	50.977922
625.819	51.242231
626.034	51.464635
626.250	51.616275
626.466	51.571517
626.682	51.451233
626.897	51.404845
627.113	51.463545
627.329	51.573548
627.544	51.763947
627.760	52.125135
627.976	52.284446
628.191	52.607411
628.407	53.122785
628.623	53.549182
628.838	53.968095
629.054	54.506013
629.269	54.985234
629.485	55.301306
629.700	55.676054
629.916	55.992747
630.131	56.188219
630.347	56.391940
630.562	56.530211
630.777	56.391798
630.993	56.433563
631.208	56.462518
631.424	56.495094
631.639	56.697446
631.854	56.779753
632.070	56.741175
632.285	56.778886
632.500	56.873092
632.715	56.977163
632.931	57.062803
633.146	57.174690
633.361	57.272105
633.576	57.516078
633.791	57.652337
634.007	57.694076
634.222	57.842316
634.437	57.947228
634.652	58.132167
634.867	58.346151
635.082	58.801635
635.297	59.222083
635.512	59.545552
635.727	59.698722
635.942	59.830580
636.157	59.976569
636.372	60.092775
636.587	60.194672
636.802	60.430934
637.017	60.662937
637.232	60.846987
637.447	60.832031
637.662	60.848445
637.876	61.148951
638.091	61.414614
638.306	61.586725
638.521	61.698277
638.736	61.760205
638.951	61.937589
639.165	62.131484
639.380	62.149682
639.595	62.129429
639.809	62.010883
640.024	61.956734
640.239	61.956166
640.453	62.078016
640.668	62.256691
640.883	62.544956
641.097	62.834997
641.312	63.074583
641.526	63.317134
641.741	63.518730
641.955	63.601598
642.170	63.751287
642.384	63.896380
642.599	63.969720
642.813	64.063521
643.028	64.150729
643.242	64.206205
643.457	64.302180
643.671	64.495247
643.885	64.602624
644.100	64.681406
644.314	64.930485
644.528	65.292900
644.743	65.482926
644.957	65.509182
645.171	65.692004
645.386	65.802663
645.600	65.980151
645.814	66.119954
646.028	66.167895
646.242	66.114416
646.457	65.990477
646.671	65.838610
646.885	65.873999
647.099	66.114128
647.313	66.473044
647.527	66.595978
647.741	66.741200
647.955	66.870219
648.169	67.101375
648.383	67.240655
648.597	67.485639
648.811	67.808412
649.025	68.158804
649.239	68.294695
649.453	68.371597
649.667	68.333672
649.881	68.549125
650.095	68.703827
650.309	68.614523
650.523	68.528028
650.737	68.652333
650.950	68.864776
651.164	69.241192
651.378	69.428202
651.592	69.386402
651.805	69.343595
652.019	69.370585
652.233	69.384361
652.447	69.464824
652.660	69.677200
652.874	69.956799
653.088	70.052254
653.301	69.936415
653.515	69.617818
653.728	69.480214
653.942	69.521004
654.156	69.601841
654.369	69.734107
654.583	69.678146
654.796	69.861870
655.010	70.143134
655.223	70.199108
655.437	70.197830
655.650	70.272142
655.863	70.383865
656.077	70.489328
656.290	70.675151
656.504	70.762384
656.717	70.731629
656.930	70.813689
657.144	70.747474
657.357	70.762781
657.570	71.018226
657.783	71.142553
657.997	71.098667
658.210	71.235965
658.423	71.350434
658.636	71.415172
658.849	71.572015
659.063	71.829117
659.276	72.021525
659.489	72.048477
659.702	72.141011
659.915	72.161176
660.128	72.163600
660.341	72.425416
660.554	72.634853
660.767	72.856948
660.980	73.164383
661.193	73.367695
661.406	73.582978
661.619	73.853194
661.832	74.071481
662.045	74.063203
662.258	73.945677
662.471	74.183403
662.684	74.333187
662.897	74.244034
663.110	73.958658
663.322	73.699220
663.535	73.550493
663.748	73.393627
663.961	73.343677
664.174	73.269996
664.386	73.090149
664.599	73.080761
664.812	72.902003
665.024	72.633506
665.237	72.469921
665.450	72.715823
665.662	73.035374
665.875	73.136983
666.088	73.197331
666.300	73.103460
666.513	73.231410
666.725	73.573204
666.938	73.632490
667.150	73.557242
667.363	73.718155
667.575	74.019536
667.788	74.147091
668.000	74.147106
668.213	74.248153
668.425	74.248999
668.638	74.171790
668.850	73.923385
669.062	73.661847
669.275	73.722350
669.487	73.994406
669.699	74.229887
669.912	74.424358
670.124	74.403280
670.336	74.215399
670.548	74.010360
670.761	73.826919
670.973	73.810660
671.185	73.969891
671.397	74.043724
671.609	74.125030
671.822	74.204364
672.034	74.201506
672.246	74.214452
672.458	74.506490
672.670	74.978525
672.882	75.462406
673.094	75.845482
673.306	76.126877
673.518	76.230934
673.730	76.269842
673.942	76.235921
674.154	76.287698
674.366	76.373251
674.578	76.382484
674.790	76.122178
675.002	75.753170
675.214	75.592211
675.425	75.626475
675.637	75.555097
675.849	75.460960
676.061	75.399114
676.273	75.387704
676.484	75.337010
676.696	75.387655
676.908	75.599054
677.120	75.882858
677.331	76.162547
677.543	76.363284
677.755	76.538749
677.966	76.777200
678.178	77.006952
678.389	77.280727
678.601	77.424065
678.813	77.519217
679.024	77.499502
679.236	77.234524
679.447	76.972451
679.659	76.469747
679.870	75.900894
680.082	75.450271
680.293	74.878493
680.505	74.588174
680.716	74.545876
680.927	74.543053
681.139	74.504372
681.350	74.413313
681.562	74.449364
681.773	74.610691
681.984	75.003595
682.196	75.272326
682.407	75.398914
682.618	75.630330
682.829	75.675086
683.041	75.656564
683.252	76.008664
683.463	76.408563
683.674	76.724304
683.885	76.952201
684.097	76.919741
684.308	76.955377
684.519	76.904447
684.730	76.795444
684.941	76.764254
685.152	76.876526
685.363	77.030031
685.574	76.771287
685.785	76.316626
685.996	76.027004
686.207	75.835380
686.418	75.863203
686.629	76.043685
686.840	76.303049
687.051	76.538956
687.262	76.656758
687.473	76.608455
687.684	76.391784
687.894	76.266787
688.105	76.492962
688.316	76.754967
688.527	76.988305
688.738	77.161838
688.948	77.027441
689.159	76.976152
689.370	77.034943
689.580	77.164618
689.791	77.309422
690.002	77.351285
690.212	77.432321
690.423	77.387245
690.634	77.298732
690.844	77.215777
691.055	77.280415
691.266	77.472218
691.476	77.780287
691.687	78.148427
691.897	78.453731
692.108	78.677372
692.318	78.916891
692.529	78.948323
692.739	78.963455
692.949	79.057271
693.160	79.172503
693.370	79.332194
693.581	79.672928
693.791	80.009656
694.001	80.150851
694.212	80.068022
694.422	79.832209
694.632	79.481884
694.843	79.171293
695.053	79.022646
695.263	78.957430
695.473	78.855069
695.683	78.696030
695.894	78.305123
696.104	77.816740
696.314	77.329104
696.524	77.113340
696.734	77.293614
696.944	77.735841
697.154	78.117123
697.365	78.360849
697.575	78.356377
697.785	78.350628
697.995	78.271496
698.205	78.405743
698.415	78.462190
698.625	78.488182
698.834	78.560573
699.044	78.489373
699.254	78.397275
699.464	78.350382
699.674	78.164110
699.884	77.866019
700.094	77.548297
700.304	77.206867
700.513	76.627500
700.723	76.167079
700.933	75.911750
701.143	75.749907
701.353	75.653619
701.562	75.633052
701.772	75.755537
701.982	76.020591
702.191	76.509710
702.401	77.058850
702.611	77.590353
702.820	77.996252
703.030	78.280312
703.239	78.519755
703.449	78.503941
703.659	78.320476
703.868	78.002574
704.078	77.786621
704.287	77.528096
704.497	77.048811
704.706	76.579775
704.916	76.175092
705.125	76.001691
705.334	75.861834
705.544	75.791122
705.753	75.803441
705.962	75.904236
706.172	75.939112
706.381	75.896363
706.590	75.962357
706.800	76.325450
707.009	76.626335
707.218	76.865120
707.428	76.991537
707.637	77.091482
707.846	77.154860
708.055	77.309935
708.264	77.491695
708.474	77.707380
708.683	77.741976
708.892	77.563296
709.101	77.312785
709.310	77.118711
709.519	76.838030
709.728	76.664697
709.937	76.584703
710.146	76.571119
710.355	76.660678
710.564	76.687293
710.773	76.669972
710.982	76.773098
711.191	76.930586
711.400	76.916152
711.609	76.784847
711.818	76.845722
712.027	76.957100
712.235	77.188489
712.444	77.335080
712.653	77.447604
712.862	77.543978
713.071	77.616221
713.279	77.588147
713.488	77.471518
713.697	77.435239
713.906	77.567703
714.114	77.627572
714.323	77.560006
714.532	77.264150
714.740	76.974482
714.949	76.745206
715.157	76.717121
715.366	76.688716
715.575	76.775829
715.783	76.757296
715.992	76.376657
716.200	75.919576
716.409	75.542933
716.617	75.220076
716.826	75.063198
717.034	74.991629
717.242	74.897744
717.451	74.563136
717.659	74.297112
717.868	73.973810
718.076	73.994095
718.284	74.399570
718.493	74.845438
718.701	75.238917
718.909	75.462809
719.118	75.510180
719.326	75.404709
719.534	75.214252
719.742	75.203449
719.951	75.409152
720.159	75.661066
720.367	75.606349
720.575	75.400406
720.783	75.105656
720.991	74.950066
721.199	75.055262
721.408	75.205906
721.616	75.340082
721.824	75.540869
722.032	75.717034
722.240	75.589042
722.448	75.326895
722.656	75.256224
722.864	75.356350
723.072	75.535818
723.280	75.488027
723.487	75.376267
723.695	75.201501
723.903	75.275186
724.111	75.374740
724.319	75.381548
724.527	75.340579
724.735	75.419340
724.942	75.559068
725.150	75.455148
725.358	75.184109
725.566	75.168417
725.773	75.253207
725.981	75.302558
726.189	75.024840
726.396	74.653871
726.604	74.431980
726.812	74.471968
727.019	74.398252
727.227	74.073105
727.435	74.067385
727.642	74.174393
727.850	73.972876
728.057	73.717049
728.265	73.549088
728.472	73.480841
728.680	73.360819
728.887	73.195458
729.095	73.007708
729.302	72.950175
729.509	72.870079
729.717	72.715653
729.924	72.711656
730.132	72.954549
730.339	72.982697
730.546	73.003292
730.753	73.055031
730.961	73.099772
731.168	72.970194
731.375	72.681285
731.583	72.305617
731.790	72.217163
731.997	72.201374
732.204	72.149240
732.411	71.979767
732.618	71.698382
732.826	71.405734
733.033	71.163079
733.240	70.976719
733.447	70.933299
733.654	71.117341
733.861	71.393204
734.068	71.396514
734.275	71.307234
734.482	71.146640
734.689	70.998145
734.896	71.238210
735.103	71.665906
735.310	72.040269
735.517	72.294245
735.724	72.375945
735.931	72.179199
736.137	71.945007
736.344	71.913706
736.551	71.843832
736.758	71.815301
736.965	71.886544
737.171	71.732325
737.378	71.384512
737.585	70.908260
737.792	70.553377
737.998	70.311852
738.205	70.208839
738.412	70.192662
738.618	70.218012
738.825	70.209051
739.032	70.154736
739.238	69.925709
739.445	69.630618
739.651	69.269492
739.858	69.201575
740.064	69.161254
740.271	69.158497
740.477	69.068673
740.684	68.820033
740.890	68.562993
741.097	68.355087
741.303	68.064834
741.510	67.785723
741.716	67.683699
741.922	67.674163
742.129	67.867319
742.335	68.005550
742.541	67.879033
742.748	67.710362
742.954	67.522367
743.160	67.343261
743.366	67.241862
743.573	67.123984
743.779	66.996617
743.985	66.900867
744.191	66.850616
744.397	66.258280
744.604	65.681255
744.810	65.502954
745.016	65.471443
745.222	65.468881
745.428	65.199244
745.634	64.772800
745.840	64.453176
746.046	64.273476
746.252	64.144649
746.458	64.046456
746.664	64.338594
746.870	64.672054
747.076	64.795739
747.282	64.783254
747.488	64.643075
747.694	64.615307
747.900	64.710255
748.105	64.816026
748.311	64.919266
748.517	64.902562
748.723	64.727009
748.929	64.241047
749.134	63.654313
749.340	63.161091
749.546	62.883369
749.752	62.824350
749.957	62.792434
750.163	62.680797
750.369	62.454323
750.574	62.075440
750.780	61.814830
750.985	61.722832
751.191	61.680267
751.397	61.704579
751.602	61.855629
751.808	61.693759
752.013	61.499591
752.219	61.279326
752.424	61.040027
752.630	61.066182
752.835	61.262205
753.041	61.201894
753.246	61.056580
753.451	60.845672
753.657	60.534516
753.862	60.200492
754.067	59.890214
754.273	59.498269
754.478	59.225199
754.683	59.188521
754.889	58.987823
755.094	58.727725
755.299	58.497776
755.504	58.271378
755.710	58.203685
755.915	58.206974
756.120	57.882464
756.325	57.653801
756.530	57.644748
756.735	57.688423
756.940	57.523835
757.146	57.293933
757.351	56.959531
757.556	56.765075
757.761	56.426677
757.966	55.969384
758.171	55.698076
758.376	55.652957
758.581	55.567707
758.786	55.402990
758.990	55.120942
759.195	54.744565
759.400	54.387502
759.605	54.023460
759.810	53.630746
760.015	53.562535
760.220	53.710557
760.424	53.648075
760.629	53.484080
760.834	53.440797
761.039	53.343185
761.244	53.260565
761.448	53.232996
761.653	53.144329
761.858	53.086454
762.062	53.081565
762.267	52.878421
762.472	52.411461
762.676	51.842230
762.881	51.258795
763.085	50.685681
763.290	49.992032
763.494	49.304158
763.699	48.776409
763.903	48.379712
764.108	47.974690
764.312	47.567877
764.517	47.228441
764.721	47.064409
764.926	47.027961
765.130	47.069345
765.335	46.974071
765.539	47.029893
765.743	47.143053
765.948	47.126786
766.152	46.990722
766.356	46.797283
766.560	46.584983
766.765	46.262144
766.969	45.960671
767.173	45.619352
767.377	45.358354
767.582	45.280037
767.786	45.041390
767.990	44.805198
768.194	44.611939
768.398	44.310703
768.602	44.069720
768.806	43.854541
769.010	43.704303
769.215	43.517357
769.419	43.357781
769.623	42.984025
769.827	42.439855
770.031	42.073781
770.234	41.556091
770.438	40.988416
770.642	40.722660
770.846	40.442098
771.050	40.018418
771.254	39.715909
771.458	39.293519
771.662	38.908431
771.866	38.598162
772.069	38.382546
772.273	38.192757
772.477	37.927397
772.681	37.605348
772.885	37.171553
773.088	36.670476
773.292	36.262884
773.496	35.829218
773.699	35.531527
773.903	35.129054
774.107	34.656533
774.310	34.256883
774.514	33.734602
774.717	33.268029
774.921	32.857986
775.124	32.519506
775.328	32.310126
775.531	32.048669
775.735	31.748385
775.938	31.464153
776.142	31.123528
776.345	30.810757
776.549	30.395199
776.752	29.988704
776.956	29.833387
777.159	29.580651
777.362	29.118138
777.566	28.674666
777.769	28.307171
777.972	27.906713
778.176	27.362486
778.379	26.996993
778.582	26.772820
778.785	26.541881
778.989	26.366088
779.192	25.998318
779.395	25.718253
779.598	25.589368
779.801	25.350800
780.004	25.000927
780.207	24.655562
780.411	24.349730
780.614	24.018774
780.817	23.632930
781.020	23.251059
781.223	22.905319
781.426	22.604946
781.629	22.378437
781.832	22.062410
782.035	21.784352
782.238	21.469515
782.440	21.160267
782.643	20.839454
782.846	20.545965
783.049	20.304263
783.252	20.040445
783.455	19.758584
783.658	19.388831
783.860	18.936228
784.063	18.519907
784.266	18.050349
784.469	17.762173
784.671	17.553629
784.874	17.351350
785.077	17.096308
785.279	16.778766
785.482	16.592081
785.685	16.420805
785.887	16.326319
786.090	16.213054
786.293	16.036758
786.495	15.911436
786.698	15.834677
786.900	15.578252
787.103	15.371182
787.305	15.155507
787.508	15.004885
787.710	14.736997
787.913	14.316277
788.115	13.967419
788.317	13.673454
788.520	13.413154
788.722	13.114353
788.924	12.687042
789.127	12.472335
789.329	12.180424
789.531	11.944949
789.734	11.596449
789.936	11.289906
790.138	11.092675
790.340	10.936421
790.543	10.781005
790.745	10.658117
790.947	10.530571
791.149	10.386747
791.351	10.262800
791.553	10.226514
791.756	10.094385
791.958	10.095803
792.160	10.063457
792.362	10.020294
792.564	9.912074
792.766	9.869559
792.968	9.835788
793.170	9.820442
793.372	9.758787
793.574	9.589846
793.776	9.403870
793.978	9.361974
794.180	9.286381
794.381	9.117388
794.583	8.995625
794.785	8.966562
794.987	8.816787
795.189	8.672742
795.391	8.562270
795.592	8.601231
795.794	8.703157
795.996	8.793349
796.198	8.756186
796.399	8.703579
796.601	8.811588
796.803	8.829103
797.004	8.651128
797.206	8.643276
797.407	8.647432
797.609	8.645380
797.811	8.696128
798.012	8.688433
798.214	8.592469
798.415	8.633305
798.617	8.643604
798.818	8.577095
799.020	8.721450
799.221	8.996876
799.423	9.198191
799.624	9.381585
799.826	9.664297
800.027	9.794567
800.228	9.891672
800.430	10.143788
800.631	10.204670
800.832	10.369623
801.034	10.600449
801.235	10.615543
801.436	10.640013
801.637	10.643840
801.839	10.594149
802.040	10.622258
802.241	10.701741
802.442	10.691156
802.643	10.763001
802.844	10.920047
803.046	10.961030
803.247	11.128631
803.448	11.316515
803.649	11.448614
803.850	11.586849
804.051	11.749205
804.252	11.875132
804.453	12.044021
804.654	12.357662
804.855	12.593109
805.056	12.816113
805.257	13.127925
805.458	13.244017
805.659	13.451238
805.859	13.751790
806.060	14.073054
806.261	14.360612
806.462	14.628004
806.663	14.748446
806.864	14.941035
807.064	15.053436
807.265	15.323543
807.466	15.526540
807.667	15.824812
807.867	16.005424
808.068	16.154987
808.269	16.352649
808.469	16.625754
808.670	16.818320
808.870	17.126157
809.071	17.339359
809.272	17.626021
809.472	17.836562
809.673	18.130576
809.873	18.368077
810.074	18.783781
810.274	19.101454
810.475	19.271713
810.675	19.431695
810.876	19.683380
811.076	19.989892
811.276	20.296402
811.477	20.544300
811.677	20.685454
811.878	20.726855
812.078	20.912927
812.278	21.052268
812.479	21.315010
812.679	21.613575
812.879	21.863310
813.079	22.132939
813.280	22.307638
813.480	22.518234
813.680	22.737121
813.880	22.968662
814.080	23.156503
814.280	23.297268
814.480	23.426106
814.681	23.521052
814.881	23.671884
815.081	23.921986
815.281	24.157763
815.481	24.444338
815.681	24.718226
815.881	24.948118
816.081	25.244104
816.281	25.772189
816.481	26.262751
816.681	26.654991
816.880	27.069521
817.080	27.486903
817.280	27.802907
817.480	28.068753
817.680	28.324452
817.880	28.720076
818.080	29.071733
818.279	29.247258
818.479	29.287297
818.679	29.399878
818.879	29.650214
819.078	29.923735
819.278	30.327215
819.478	30.719659
819.677	31.098206
819.877	31.498196
820.077	31.763035
820.276	32.149715
820.476	32.576288
820.675	32.987320
820.875	33.317981
821.074	33.506970
821.274	33.675182
821.473	33.820500
821.673	34.077554
821.872	34.270698
822.072	34.446921
822.271	34.705327
822.471	34.916368
822.670	35.015208
822.869	35.195742
823.069	35.195609
823.268	35.290638
823.467	35.481655
823.667	35.610031
823.866	35.684353
824.065	35.924460
824.265	36.172851
824.464	36.403248
824.663	36.695132
824.862	37.150795
825.061	37.416829
825.261	37.894594
825.460	38.431722
825.659	38.763258
825.858	38.968270
826.057	39.088046
826.256	39.190112
826.455	39.429049
826.654	39.714692
826.853	40.020060
827.052	40.376099
827.251	40.694939
827.450	40.947183
