Date	2025年07月03日木曜日 09時55分21秒
Spectrometers	SR401765
ダーク	使用
リファレンス	使用
積分時間[msec]	300
平均回数	1
ｽﾑｰｼﾞﾝｸﾞ	5
Electrical Dark	USE
ピクセル数	3648
計測モード	反射率
保存開始波長[nm]	598.495
保存終了波長[nm]	1274.802
保存ﾋﾟｯﾁ波長[nm]	全波長

>>>>>>>>>> Data Start <<<<<<<<<<<<
598.495	27485.394979
598.713	27485.394979
598.931	27485.394979
599.148	27485.394979
599.366	0.000000
599.584	0.000000
599.802	5047.600465
600.020	220.903403
600.238	-55.418823
600.455	-110.151960
600.673	-83.917746
600.891	34.348813
601.109	40.847620
601.326	42.068649
601.544	41.986978
601.762	42.609165
601.979	43.086614
602.197	43.520349
602.415	43.963272
602.632	44.282548
602.850	44.428406
603.067	44.721689
603.285	45.102145
603.502	45.322857
603.720	45.519088
603.938	45.988546
604.155	46.264253
604.372	46.436131
604.590	46.685463
604.807	46.922107
605.025	47.060786
605.242	47.264334
605.460	47.182580
605.677	47.106800
605.894	47.134768
606.112	47.262962
606.329	47.303205
606.546	47.511988
606.764	47.992800
606.981	48.247165
607.198	48.293550
607.415	48.407582
607.633	48.735774
607.850	49.037522
608.067	49.363496
608.284	49.728750
608.501	49.999327
608.718	50.251329
608.935	50.327374
609.153	50.140961
609.370	50.117213
609.587	50.286090
609.804	50.616213
610.021	50.655466
610.238	50.664324
610.455	50.574821
610.672	50.458086
610.889	50.482319
611.106	50.468178
611.323	50.605089
611.540	50.943891
611.756	51.194800
611.973	51.250093
612.190	51.209277
612.407	51.235934
612.624	51.487843
612.841	51.907825
613.057	52.264811
613.274	52.580982
613.491	53.218184
613.708	53.876491
613.925	54.264282
614.141	54.493775
614.358	54.840935
614.575	55.195955
614.791	55.475703
615.008	55.753559
615.225	55.871394
615.441	55.764615
615.658	55.611015
615.874	55.315400
616.091	55.075455
616.307	55.194296
616.524	55.519109
616.740	55.729260
616.957	55.832566
617.173	56.123526
617.390	56.172280
617.606	56.264493
617.823	56.681249
618.039	57.113106
618.256	57.474701
618.472	57.777450
618.688	57.802740
618.905	57.796557
619.121	57.843633
619.337	57.972183
619.554	58.079986
619.770	58.247408
619.986	58.447773
620.202	58.678083
620.419	58.983034
620.635	59.084366
620.851	59.031699
621.067	59.065550
621.283	59.199417
621.499	59.430644
621.716	59.583784
621.932	59.682585
622.148	60.003803
622.364	60.264486
622.580	60.393192
622.796	60.429829
623.012	60.533211
623.228	60.822878
623.444	61.198664
623.660	61.394099
623.876	61.442572
624.092	61.613056
624.308	61.978484
624.524	62.242433
624.740	62.454803
624.955	62.660183
625.171	62.862185
625.387	62.919367
625.603	63.032638
625.819	63.177408
626.034	63.373540
626.250	63.585130
626.466	63.751359
626.682	63.715626
626.897	63.556033
627.113	63.542876
627.329	63.714085
627.544	63.999500
627.760	64.239957
627.976	64.218552
628.191	64.158877
628.407	64.357788
628.623	64.789935
628.838	65.127235
629.054	65.409884
629.269	65.808762
629.485	66.130503
629.700	66.480976
629.916	66.888565
630.131	67.235401
630.347	67.637054
630.562	68.196696
630.777	68.367998
630.993	68.315535
631.208	68.219051
631.424	68.127117
631.639	68.067676
631.854	67.986039
632.070	67.789876
632.285	67.560512
632.500	67.552442
632.715	67.518231
632.931	67.262397
633.146	67.094789
633.361	66.936474
633.576	67.038983
633.791	67.291001
634.007	67.495332
634.222	67.759675
634.437	67.887366
634.652	67.794328
634.867	67.811698
635.082	68.070042
635.297	68.376699
635.512	68.680583
635.727	69.042715
635.942	69.364315
636.157	69.680235
636.372	69.787706
636.587	69.633873
636.802	69.551986
637.017	69.776193
637.232	70.024851
637.447	70.279645
637.662	70.495218
637.876	70.614579
638.091	70.578687
638.306	70.476324
638.521	70.351238
638.736	70.320969
638.951	70.409758
639.165	70.430692
639.380	70.460838
639.595	70.503939
639.809	70.364692
640.024	70.164544
640.239	70.243957
640.453	70.390930
640.668	70.630532
640.883	70.768106
641.097	70.862143
641.312	71.086703
641.526	71.327254
641.741	71.321187
641.955	71.246946
642.170	71.242316
642.384	71.420363
642.599	71.482795
642.813	71.660115
643.028	71.946793
643.242	72.326194
643.457	72.729848
643.671	72.838935
643.885	72.819313
644.100	72.919907
644.314	73.140282
644.528	73.299629
644.743	73.375526
644.957	73.439972
645.171	73.398207
645.386	72.980710
645.600	72.604379
645.814	72.497638
646.028	72.669151
646.242	72.784507
646.457	72.597974
646.671	72.283102
646.885	72.281399
647.099	72.489602
647.313	72.664133
647.527	72.739776
647.741	72.919457
647.955	73.207962
648.169	73.481523
648.383	73.750459
648.597	74.041846
648.811	74.486430
649.025	74.982100
649.239	75.084994
649.453	74.945522
649.667	74.912909
649.881	75.211193
650.095	75.465356
650.309	75.395691
650.523	75.377140
650.737	75.335313
650.950	75.439974
651.164	75.673168
651.378	76.014268
651.592	76.454016
651.805	76.705968
652.019	76.907623
652.233	76.979612
652.447	77.052351
652.660	77.125203
652.874	77.011192
653.088	76.970096
653.301	76.937083
653.515	76.773462
653.728	76.443749
653.942	76.179197
654.156	75.838268
654.369	75.406905
654.583	75.088212
654.796	75.064513
655.010	75.213118
655.223	75.376860
655.437	75.357594
655.650	75.288400
655.863	75.245012
656.077	75.450993
656.290	75.489584
656.504	75.720114
656.717	76.016393
656.930	76.147626
657.144	76.112232
657.357	76.304683
657.570	76.459301
657.783	76.510974
657.997	76.605991
658.210	76.747629
658.423	76.704908
658.636	76.861990
658.849	77.103527
659.063	77.379988
659.276	77.783133
659.489	78.184411
659.702	78.344676
659.915	78.316750
660.128	78.301576
660.341	78.595102
660.554	78.942107
660.767	79.172396
660.980	79.416710
661.193	79.481191
661.406	79.717061
661.619	80.046112
661.832	80.166831
662.045	80.097410
662.258	80.161998
662.471	80.353756
662.684	80.303597
662.897	80.176371
663.110	79.859071
663.322	79.466729
663.535	79.182720
663.748	78.667091
663.961	78.126842
664.174	77.760652
664.386	77.716879
664.599	77.976052
664.812	78.202497
665.024	78.451598
665.237	78.645602
665.450	78.942769
665.662	79.243728
665.875	79.668078
666.088	80.148414
666.300	80.310014
666.513	80.402395
666.725	80.510783
666.938	80.401593
667.150	80.189592
667.363	80.100860
667.575	80.172860
667.788	80.443159
668.000	80.858167
668.213	81.061078
668.425	81.151863
668.638	81.184839
668.850	81.126535
669.062	81.099173
669.275	81.290421
669.487	81.681928
669.699	81.903264
669.912	82.041319
670.124	81.911794
670.336	81.431702
670.548	81.153837
670.761	80.912892
670.973	80.920973
671.185	81.144409
671.397	81.162120
671.609	81.111459
671.822	80.957453
672.034	80.776371
672.246	80.640672
672.458	80.669183
672.670	81.017759
672.882	81.254386
673.094	81.233179
673.306	81.179737
673.518	81.114523
673.730	80.915534
673.942	80.625023
674.154	80.389506
674.366	80.327961
674.578	80.423509
674.790	80.654144
675.002	80.727833
675.214	80.732632
675.425	80.715589
675.637	80.509611
675.849	80.297484
676.061	80.232546
676.273	80.231213
676.484	80.279419
676.696	80.414714
676.908	80.678674
677.120	80.911361
677.331	80.863280
677.543	80.721594
677.755	80.728509
677.966	81.069822
678.178	81.383146
678.389	81.578831
678.601	81.821911
678.813	82.062648
679.024	81.956453
679.236	81.669201
679.447	81.288400
679.659	80.876594
679.870	80.471605
680.082	80.213151
680.293	79.701464
680.505	79.353596
680.716	79.303322
680.927	79.002337
681.139	78.643551
681.350	78.509359
681.562	78.337966
681.773	78.148972
681.984	78.266488
682.196	78.614362
682.407	79.026934
682.618	79.494492
682.829	79.667383
683.041	79.768908
683.252	80.146993
683.463	80.547573
683.674	80.798744
683.885	80.857692
684.097	80.737013
684.308	80.650804
684.519	80.565778
684.730	80.370108
684.941	80.028712
685.152	79.821399
685.363	79.652321
685.574	79.373419
685.785	79.130008
685.996	78.950431
686.207	79.020589
686.418	79.297005
686.629	79.507855
686.840	79.682483
687.051	79.863925
687.262	80.132900
687.473	80.351959
687.684	80.464655
687.894	80.655421
688.105	81.028898
688.316	81.354942
688.527	81.429058
688.738	81.276319
688.948	80.947848
689.159	80.550331
689.370	80.096960
689.580	79.822869
689.791	79.733304
690.002	79.742107
690.212	79.806571
690.423	79.737696
690.634	79.693686
690.844	79.654744
691.055	79.939983
691.266	80.436848
691.476	80.770005
691.687	81.252758
691.897	81.820496
692.108	82.185483
692.318	82.357300
692.529	82.131014
692.739	81.753371
692.949	81.524322
693.160	81.531783
693.370	81.631170
693.581	81.875129
693.791	82.251549
694.001	82.302302
694.212	82.216992
694.422	82.220311
694.632	82.083598
694.843	82.170792
695.053	82.607006
695.263	82.903094
695.473	82.931125
695.683	82.806231
695.894	82.568451
696.104	82.399038
696.314	82.377536
696.524	82.392689
696.734	82.549832
696.944	82.882423
697.154	83.063686
697.365	82.892125
697.575	82.582269
697.785	82.518082
697.995	82.358372
698.205	82.024026
698.415	81.671385
698.625	81.362454
698.834	80.983377
699.044	80.376000
699.254	79.871425
699.464	79.528379
699.674	79.197558
699.884	78.845083
700.094	78.427554
700.304	77.976206
700.513	77.626314
700.723	77.547744
700.933	77.732589
701.143	78.047685
701.353	78.341032
701.562	78.485032
701.772	78.580699
701.982	78.874646
702.191	79.349078
702.401	79.722637
702.611	80.122270
702.820	80.454119
703.030	80.585109
703.239	80.490377
703.449	80.220451
703.659	80.118522
703.868	80.089090
704.078	79.882401
704.287	79.500274
704.497	79.084666
704.706	78.654754
704.916	78.252521
705.125	78.033836
705.334	77.818547
705.544	77.719136
705.753	77.746104
705.962	77.693854
706.172	77.513993
706.381	77.686039
706.590	77.943829
706.800	78.004383
707.009	78.169886
707.218	78.641323
707.428	78.992905
707.637	79.126081
707.846	79.287212
708.055	79.678515
708.264	80.053367
708.474	80.419244
708.683	80.535371
708.892	80.518677
709.101	80.769176
709.310	81.023615
709.519	81.000127
709.728	80.931367
709.937	80.897224
710.146	80.714034
710.355	80.303798
710.564	79.840224
710.773	79.377082
710.982	78.869645
711.191	78.338132
711.400	77.948863
711.609	77.747085
711.818	77.611549
712.027	77.555334
712.235	77.721011
712.444	77.795329
712.653	77.655024
712.862	77.634967
713.071	77.881518
713.279	78.310934
713.488	78.768454
713.697	78.892781
713.906	78.804181
714.114	78.698815
714.323	78.568885
714.532	78.236423
714.740	78.118359
714.949	78.328884
715.157	78.537641
715.366	78.490237
715.575	78.291771
715.783	78.093976
715.992	77.863990
716.200	77.546652
716.409	77.121405
716.617	76.699140
716.826	76.497893
717.034	76.399239
717.242	76.365328
717.451	76.205314
717.659	76.096557
717.868	76.115646
718.076	76.429796
718.284	77.039887
718.493	77.712816
718.701	78.211605
718.909	78.557946
719.118	78.755020
719.326	78.826339
719.534	78.780992
719.742	78.739006
719.951	78.896327
720.159	79.002538
720.367	78.797714
720.575	78.383387
720.783	78.010294
720.991	77.860387
721.199	77.683515
721.408	77.289433
721.616	76.800559
721.824	76.403497
722.032	76.195679
722.240	75.702744
722.448	75.285999
722.656	75.198572
722.864	75.157588
723.072	74.972403
723.280	74.675632
723.487	74.532271
723.695	74.655253
723.903	75.048483
724.111	75.171542
724.319	75.179481
724.527	75.470334
724.735	75.960941
724.942	76.202916
725.150	76.159187
725.358	76.074621
725.566	76.172521
725.773	76.394019
725.981	76.510126
726.189	76.345857
726.396	76.155909
726.604	75.974526
726.812	75.818308
727.019	75.468472
727.227	75.075697
727.435	75.167681
727.642	75.397243
727.850	75.331946
728.057	75.012264
728.265	74.539363
728.472	74.000592
728.680	73.655545
728.887	73.440338
729.095	73.156199
729.302	72.853565
729.509	72.557742
729.717	72.193906
729.924	72.034800
730.132	72.169277
730.339	72.261340
730.546	72.483984
730.753	72.774824
730.961	73.064762
731.168	73.289198
731.375	73.326435
731.583	73.069781
731.790	72.763509
731.997	72.493637
732.204	72.123377
732.411	71.727846
732.618	71.490126
732.826	71.348171
733.033	71.311645
733.240	71.185331
733.447	70.892531
733.654	70.731042
733.861	70.869912
734.068	71.209123
734.275	71.642395
734.482	71.977975
734.689	71.982088
734.896	71.886693
735.103	71.882026
735.310	71.856571
735.517	71.857551
735.724	71.829103
735.931	71.445781
736.137	71.078923
736.344	70.794253
736.551	70.273359
736.758	69.794347
736.965	69.548257
737.171	69.229614
737.378	68.888693
737.585	68.623904
737.792	68.311796
737.998	68.156210
738.205	68.511482
738.412	68.715879
738.618	68.606957
738.825	68.473074
739.032	68.428983
739.238	68.415626
739.445	68.573017
739.651	68.418221
739.858	68.078580
740.064	67.833739
740.271	67.785776
740.477	67.487419
740.684	67.190338
740.890	66.889287
741.097	66.527920
741.303	66.082678
741.510	65.692138
741.716	65.330823
741.922	65.267881
742.129	65.482142
742.335	65.701487
742.541	65.527102
742.748	65.342480
742.954	65.306479
743.160	65.380691
743.366	65.365249
743.573	65.144218
743.779	64.895212
743.985	64.784740
744.191	64.634259
744.397	64.343122
744.604	63.971656
744.810	63.731475
745.016	63.534041
745.222	63.211549
745.428	62.659482
745.634	62.242749
745.840	62.045435
746.046	61.873978
746.252	61.654524
746.458	61.505284
746.664	61.405098
746.870	61.324008
747.076	61.175396
747.282	60.905204
747.488	60.715491
747.694	60.765290
747.900	60.867659
748.105	60.992140
748.311	60.994208
748.517	60.842824
748.723	60.522700
748.929	60.008796
749.134	59.512923
749.340	59.233938
749.546	59.261062
749.752	59.270212
749.957	59.178954
750.163	58.954692
750.369	58.574967
750.574	58.308449
750.780	58.196578
750.985	58.056195
751.191	57.888982
751.397	57.832324
751.602	57.642592
751.808	57.246263
752.013	56.706117
752.219	56.204374
752.424	55.919018
752.630	55.837487
752.835	55.560618
753.041	55.206587
753.246	54.917232
753.451	54.598794
753.657	54.165572
753.862	53.757205
754.067	53.172902
754.273	52.668346
754.478	52.202155
754.683	51.756559
754.889	51.343786
755.094	51.291030
755.299	51.065182
755.504	50.847599
755.710	50.844055
755.915	50.670454
756.120	50.222935
756.325	49.956912
756.530	49.718640
756.735	49.512215
756.940	49.300454
757.146	48.975293
757.351	48.397950
757.556	47.832750
757.761	47.060338
757.966	46.250539
758.171	45.696096
758.376	45.577453
758.581	45.438848
758.786	45.292791
758.990	45.150301
759.195	44.945201
759.400	44.618432
759.605	44.289479
759.810	44.240553
760.015	44.401900
760.220	44.411127
760.424	44.333576
760.629	43.927650
760.834	43.678244
761.039	43.529929
761.244	43.394491
761.448	43.104370
761.653	42.854229
761.858	42.756857
762.062	42.556796
762.267	42.307724
762.472	42.087037
762.676	41.676386
762.881	41.312747
763.085	40.810411
763.290	40.285994
763.494	39.580464
763.699	38.923237
763.903	38.409168
764.108	37.979157
764.312	37.554788
764.517	37.195671
764.721	36.897605
764.926	36.667924
765.130	36.447056
765.335	36.108916
765.539	35.848828
765.743	35.828933
765.948	35.729075
766.152	35.546525
766.356	35.169734
766.560	34.726549
766.765	34.247510
766.969	33.718362
767.173	33.373090
767.377	33.125639
767.582	33.043600
767.786	32.885363
767.990	32.667018
768.194	32.574247
768.398	32.366536
768.602	32.031489
768.806	31.675044
769.010	31.325082
769.215	31.042876
769.419	30.580039
769.623	30.214859
769.827	29.801931
770.031	29.303245
770.234	28.664286
770.438	28.039198
770.642	27.601059
770.846	27.401585
771.050	27.273198
771.254	27.143997
771.458	26.909527
771.662	26.722472
771.866	26.379269
772.069	25.998829
772.273	25.634595
772.477	25.304341
772.681	24.949503
772.885	24.611793
773.088	24.100428
773.292	23.568964
773.496	23.197659
773.699	22.909703
773.903	22.644091
774.107	22.439790
774.310	22.198560
774.514	21.938635
774.717	21.767854
774.921	21.571874
775.124	21.186109
775.328	20.868685
775.531	20.626414
775.735	20.206284
775.938	19.857151
776.142	19.518669
776.345	19.027936
776.549	18.616238
776.752	18.311661
776.956	18.022558
777.159	17.652173
777.362	17.295076
777.566	17.099348
777.769	16.909623
777.972	16.696564
778.176	16.407575
778.379	16.251239
778.582	16.213194
778.785	16.177969
778.989	16.077684
779.192	15.877660
779.395	15.792750
779.598	15.843809
779.801	15.690120
780.004	15.402450
780.207	15.191929
780.411	15.143734
780.614	14.919550
780.817	14.730220
781.020	14.486864
781.223	14.279536
781.426	14.146477
781.629	14.001414
781.832	13.749211
782.035	13.556552
782.238	13.454230
782.440	13.394857
782.643	13.204970
782.846	13.015939
783.049	12.881607
783.252	12.820619
783.455	12.744003
783.658	12.660380
783.860	12.571022
784.063	12.590759
784.266	12.544960
784.469	12.482331
784.671	12.373071
784.874	12.329041
785.077	12.289189
785.279	12.209138
785.482	12.185098
785.685	12.220020
785.887	12.161016
786.090	12.173408
786.293	12.284655
786.495	12.421413
786.698	12.640075
786.900	12.753192
787.103	12.729724
787.305	12.773357
787.508	12.814198
787.710	12.814809
787.913	12.770035
788.115	12.734336
788.317	12.738426
788.520	12.585748
788.722	12.439551
788.924	12.288519
789.127	12.332451
789.329	12.419196
789.531	12.414718
789.734	12.400515
789.936	12.528832
790.138	12.640629
790.340	12.967026
790.543	13.118097
790.745	13.269324
790.947	13.453284
791.149	13.555917
791.351	13.731325
791.553	13.995416
791.756	14.281875
791.958	14.624361
792.160	14.740624
792.362	14.838119
792.564	14.915429
792.766	15.141143
792.968	15.489624
793.170	15.860152
793.372	16.158143
793.574	16.250669
793.776	16.286805
793.978	16.375561
794.180	16.464867
794.381	16.548649
794.583	16.766300
794.785	17.005060
794.987	17.164281
795.189	17.173412
795.391	17.283036
795.592	17.472108
795.794	17.779741
795.996	18.150347
796.198	18.480287
796.399	18.773239
796.601	19.216480
796.803	19.518903
797.004	19.566381
797.206	19.730272
797.407	20.114298
797.609	20.291183
797.811	20.602100
798.012	20.844735
798.214	20.870488
798.415	21.000791
798.617	21.085515
798.818	21.146852
799.020	21.331688
799.221	21.628090
799.423	21.903189
799.624	22.069652
799.826	22.482567
800.027	22.803887
800.228	23.092781
800.430	23.407742
800.631	23.587467
800.832	23.812895
801.034	24.057480
801.235	24.233104
801.436	24.439163
801.637	24.644208
801.839	24.738483
802.040	24.845019
802.241	24.893601
802.442	24.855084
802.643	25.066503
802.844	25.440529
803.046	25.780299
803.247	26.065997
803.448	26.294032
803.649	26.519078
803.850	26.794019
804.051	27.021725
804.252	27.184618
804.453	27.359134
804.654	27.753031
804.855	28.086981
805.056	28.415777
805.257	28.727427
805.458	29.070851
805.659	29.519676
805.859	30.027712
806.060	30.387806
806.261	31.055313
806.462	31.699537
806.663	32.109127
806.864	32.452208
807.064	32.752717
807.265	33.010986
807.466	33.359972
807.667	33.688096
807.867	33.846358
808.068	34.005241
808.269	34.247418
808.469	34.474903
808.670	34.682908
808.870	35.058586
809.071	35.222350
809.272	35.468600
809.472	35.816479
809.673	36.101440
809.873	36.398482
810.074	36.890172
810.274	37.341997
810.475	37.704004
810.675	37.808345
810.876	37.885715
811.076	38.017974
811.276	38.260488
811.477	38.310994
811.677	38.149140
811.878	38.055380
812.078	38.107078
812.278	38.298674
812.479	38.510653
812.679	38.675207
812.879	38.934198
813.079	39.217232
813.280	39.388961
813.480	39.583509
813.680	39.883042
813.880	40.319411
814.080	40.652825
814.280	40.849425
814.480	40.826666
814.681	40.834894
814.881	40.975020
815.081	41.135314
815.281	41.143071
815.481	41.315828
815.681	41.606993
815.881	41.799719
816.081	42.063090
816.281	42.406514
816.481	42.878651
816.681	43.339473
816.880	43.590152
817.080	43.825394
817.280	44.046152
817.480	44.472569
817.680	44.850151
817.880	45.264924
818.080	45.584640
818.279	45.686960
818.479	45.822760
818.679	45.910937
818.879	46.093558
819.078	46.273382
819.278	46.460775
819.478	46.683285
819.677	47.022349
819.877	47.458801
820.077	47.511430
820.276	47.816542
820.476	48.278613
820.675	48.822195
820.875	49.180785
821.074	49.335560
821.274	49.660323
821.473	50.066493
821.673	50.430714
821.872	50.443893
822.072	50.394723
822.271	50.684625
822.471	50.858975
822.670	50.822260
822.869	50.628713
823.069	50.469177
823.268	50.343952
823.467	50.330343
823.667	50.314728
823.866	50.326047
824.065	50.730237
824.265	51.204713
824.464	51.652985
824.663	52.071945
824.862	52.491062
825.061	52.778815
825.261	53.067572
825.460	53.446417
825.659	53.744397
825.858	53.936930
826.057	54.154549
826.256	54.324121
826.455	54.431509
826.654	54.465291
826.853	54.439938
827.052	54.545271
