Date	2025年07月03日木曜日 09時53分36秒
Spectrometers	SR401765
ダーク	使用
リファレンス	使用
積分時間[msec]	300
平均回数	1
ｽﾑｰｼﾞﾝｸﾞ	5
Electrical Dark	USE
ピクセル数	3648
計測モード	反射率
保存開始波長[nm]	598.495
保存終了波長[nm]	1274.802
保存ﾋﾟｯﾁ波長[nm]	全波長

>>>>>>>>>> Data Start <<<<<<<<<<<<
598.495	133.333333
598.713	133.333333
598.931	133.333333
599.148	133.333333
599.366	0.000000
599.584	0.000000
599.802	754.135849
600.020	165.604817
600.238	226.852021
600.455	219.787830
600.673	99.898128
600.891	26.895386
601.109	23.279936
601.326	22.748462
601.544	22.253551
601.762	22.757522
601.979	23.036604
602.197	23.088758
602.415	23.064046
602.632	23.128437
602.850	23.298520
603.067	23.535164
603.285	23.770948
603.502	23.958479
603.720	23.989581
603.938	24.068792
604.155	24.190083
604.372	24.352349
604.590	24.470481
604.807	24.675236
605.025	24.665480
605.242	24.729794
605.460	24.763742
605.677	24.759964
605.894	24.936613
606.112	25.408819
606.329	25.674534
606.546	25.838391
606.764	26.020462
606.981	26.031279
607.198	26.113861
607.415	26.436194
607.633	26.620992
607.850	26.666394
608.067	26.728391
608.284	26.730434
608.501	26.667657
608.718	26.836836
608.935	26.926353
609.153	27.016850
609.370	27.258941
609.587	27.368389
609.804	27.475488
610.021	27.659165
610.238	28.015188
610.455	28.276647
610.672	28.573136
610.889	28.625496
611.106	28.637244
611.323	28.806026
611.540	29.077889
611.756	29.317482
611.973	29.460863
612.190	29.555009
612.407	29.720750
612.624	29.848024
612.841	30.079727
613.057	30.213036
613.274	30.457898
613.491	30.865084
613.708	31.223518
613.925	31.257950
614.141	31.272371
614.358	31.646698
614.575	31.962774
614.791	32.094417
615.008	32.308061
615.225	32.645807
615.441	32.943377
615.658	33.255426
615.874	33.302317
616.091	33.336889
616.307	33.748113
616.524	34.148101
616.740	34.262811
616.957	34.405636
617.173	34.536461
617.390	34.610530
617.606	34.649303
617.823	34.892516
618.039	35.167093
618.256	35.525674
618.472	35.727915
618.688	35.702652
618.905	35.704429
619.121	35.854839
619.337	36.166735
619.554	36.535031
619.770	36.888958
619.986	36.971645
620.202	36.954960
620.419	37.231278
620.635	37.618364
620.851	38.115273
621.067	38.569534
621.283	38.882928
621.499	39.120951
621.716	39.250147
621.932	39.365089
622.148	39.623582
622.364	40.043579
622.580	40.419706
622.796	40.462227
623.012	40.407839
623.228	40.350398
623.444	40.378257
623.660	40.671190
623.876	40.936316
624.092	41.170119
624.308	41.493886
624.524	41.718197
624.740	41.854693
624.955	41.976069
625.171	42.108733
625.387	42.220160
625.603	42.460351
625.819	42.693832
626.034	42.853485
626.250	43.108572
626.466	43.300942
626.682	43.339373
626.897	43.235774
627.113	43.301948
627.329	43.578397
627.544	43.805309
627.760	44.055646
627.976	44.190537
628.191	44.466531
628.407	44.900293
628.623	45.259567
628.838	45.582871
629.054	46.033401
629.269	46.506326
629.485	46.873540
629.700	47.098924
629.916	47.498641
630.131	47.908786
630.347	48.239813
630.562	48.380920
630.777	48.368734
630.993	48.415815
631.208	48.514868
631.424	48.602826
631.639	48.907554
631.854	49.147543
632.070	49.343397
632.285	49.450493
632.500	49.577588
632.715	49.716989
632.931	49.874916
633.146	50.038551
633.361	50.204474
633.576	50.555071
633.791	50.860368
634.007	50.877801
634.222	50.882134
634.437	50.775378
634.652	50.754606
634.867	50.819074
635.082	51.122078
635.297	51.587411
635.512	51.975885
635.727	52.230200
635.942	52.298381
636.157	52.355640
636.372	52.496951
636.587	52.739432
636.802	53.057229
637.017	53.357891
637.232	53.620165
637.447	53.791947
637.662	54.031245
637.876	54.291139
638.091	54.492867
638.306	54.730083
638.521	54.910931
638.736	55.202413
638.951	55.503978
639.165	55.800089
639.380	56.057897
639.595	56.182368
639.809	56.171043
640.024	56.076748
640.239	56.117730
640.453	56.313653
640.668	56.603230
640.883	56.849778
641.097	56.956900
641.312	57.076068
641.526	57.378049
641.741	57.616909
641.955	57.855665
642.170	58.081668
642.384	58.089853
642.599	57.997771
642.813	57.975897
643.028	57.965797
643.242	58.011498
643.457	58.175018
643.671	58.384896
643.885	58.468165
644.100	58.527359
644.314	58.643417
644.528	58.872650
644.743	59.157813
644.957	59.351370
645.171	59.571699
645.386	59.699185
645.600	59.964022
645.814	60.043819
646.028	60.052001
646.242	59.967287
646.457	59.904046
646.671	59.933176
646.885	60.041482
647.099	60.257584
647.313	60.484820
647.527	60.683948
647.741	60.880365
647.955	61.016811
648.169	61.415892
648.383	61.710968
648.597	62.031115
648.811	62.250025
649.025	62.409043
649.239	62.566031
649.453	62.793010
649.667	62.956188
649.881	63.138533
650.095	63.477442
650.309	63.686372
650.523	63.660846
650.737	63.717797
650.950	63.997565
651.164	64.384088
651.378	64.596319
651.592	64.566062
651.805	64.398323
652.019	64.663562
652.233	64.999502
652.447	64.986916
652.660	64.924437
652.874	64.944018
653.088	65.038936
653.301	64.934655
653.515	64.739574
653.728	64.574351
653.942	64.652832
654.156	64.824084
654.369	64.741037
654.583	64.663373
654.796	64.934706
655.010	65.368425
655.223	65.642642
655.437	65.691635
655.650	65.931154
655.863	66.257248
656.077	66.549803
656.290	66.703072
656.504	66.784700
656.717	66.908839
656.930	67.112628
657.144	66.970947
657.357	66.894656
657.570	67.184287
657.783	67.451621
657.997	67.472955
658.210	67.497280
658.423	67.597060
658.636	67.746745
658.849	67.868502
659.063	67.971805
659.276	67.782431
659.489	67.772406
659.702	67.957296
659.915	67.916878
660.128	67.876055
660.341	68.064552
660.554	68.393272
660.767	68.710538
660.980	69.008206
661.193	69.291366
661.406	69.512305
661.619	69.837048
661.832	70.224744
662.045	70.419311
662.258	70.533494
662.471	70.746027
662.684	70.886608
662.897	70.783514
663.110	70.550111
663.322	70.319709
663.535	70.214662
663.748	70.149189
663.961	70.290503
664.174	70.203968
664.386	70.040991
664.599	69.991682
664.812	69.973240
665.024	69.855626
665.237	69.826777
665.450	69.957064
665.662	70.161236
665.875	70.343434
666.088	70.474267
666.300	70.414792
666.513	70.424268
666.725	70.418421
666.938	70.438400
667.150	70.452646
667.363	70.671743
667.575	70.840287
667.788	70.866293
668.000	70.969751
668.213	71.014427
668.425	70.959958
668.638	70.836431
668.850	70.841641
669.062	70.892258
669.275	71.001300
669.487	70.991255
669.699	70.829599
669.912	70.820285
670.124	71.014182
670.336	70.977456
670.548	71.004806
670.761	71.149461
670.973	71.213059
671.185	71.329053
671.397	71.402410
671.609	71.421159
671.822	71.462799
672.034	71.567833
672.246	71.773864
672.458	72.001256
672.670	72.348554
672.882	72.640693
673.094	72.705346
673.306	72.801953
673.518	72.720815
673.730	72.732123
673.942	72.900506
674.154	73.302727
674.366	73.659031
674.578	73.744190
674.790	73.635480
675.002	73.513239
675.214	73.387646
675.425	73.350950
675.637	73.366621
675.849	73.445875
676.061	73.374858
676.273	73.358378
676.484	73.291949
676.696	73.131349
676.908	73.264298
677.120	73.526380
677.331	73.716816
677.543	73.910929
677.755	74.104367
677.966	74.345284
678.178	74.624370
678.389	74.847161
678.601	74.711996
678.813	74.565636
679.024	74.582063
679.236	74.439047
679.447	74.229945
679.659	73.839149
679.870	73.365102
680.082	73.181153
680.293	72.994317
680.505	72.885515
680.716	73.144369
680.927	73.425996
681.139	73.596059
681.350	73.776329
681.562	73.881416
681.773	74.010043
681.984	74.288875
682.196	74.587225
682.407	74.684001
682.618	74.712402
682.829	74.695643
683.041	74.500498
683.252	74.702499
683.463	75.047321
683.674	75.238324
683.885	75.446191
684.097	75.495197
684.308	75.606870
684.519	75.621539
684.730	75.450546
684.941	75.313004
685.152	75.234620
685.363	75.251631
685.574	75.074052
685.785	74.878903
685.996	74.572358
686.207	74.051154
686.418	73.822828
686.629	73.756447
686.840	73.814176
687.051	73.943777
687.262	74.200771
687.473	74.382043
687.684	74.357661
687.894	74.341017
688.105	74.352867
688.316	74.678212
688.527	75.229150
688.738	75.564199
688.948	75.638811
689.159	75.747540
689.370	75.822156
689.580	75.838175
689.791	75.993356
690.002	76.051729
690.212	76.012943
690.423	75.875289
690.634	75.684395
690.844	75.601083
691.055	75.604538
691.266	75.708884
691.476	75.651685
691.687	75.735034
691.897	75.899613
692.108	75.924311
692.318	76.122249
692.529	76.190816
692.739	76.201627
692.949	76.181080
693.160	75.996661
693.370	76.078991
693.581	76.295172
693.791	76.557766
694.001	76.599533
694.212	76.334105
694.422	75.961268
694.632	75.671731
694.843	75.534646
695.053	75.583189
695.263	75.679481
695.473	75.929396
695.683	75.979551
695.894	75.753807
696.104	75.498153
696.314	75.353134
696.524	75.362553
696.734	75.658708
696.944	76.025805
697.154	76.348629
697.365	76.501052
697.575	76.365070
697.785	76.201293
697.995	76.002835
698.205	76.065360
698.415	76.223536
698.625	76.362501
698.834	76.493818
699.044	76.441527
699.254	76.286270
699.464	76.265284
699.674	76.346795
699.884	76.548430
700.094	76.615316
700.304	76.465145
700.513	76.161440
700.723	75.791187
700.933	75.665653
701.143	75.807023
701.353	75.912128
701.562	75.901268
701.772	75.713685
701.982	75.628864
702.191	75.595365
702.401	75.608603
702.611	75.823671
702.820	75.933358
703.030	76.169873
703.239	76.340998
703.449	76.232248
703.659	76.024651
703.868	75.817478
704.078	75.752971
704.287	75.530038
704.497	75.258964
704.706	75.028610
704.916	74.860599
705.125	74.914626
705.334	74.928232
705.544	74.979479
705.753	74.983959
705.962	75.053963
706.172	75.169504
706.381	75.379371
706.590	75.683218
706.800	76.022000
707.009	76.303314
707.218	76.382114
707.428	76.340249
707.637	76.339333
707.846	76.245232
708.055	76.179233
708.264	76.216689
708.474	76.343706
708.683	76.271702
708.892	76.110850
709.101	75.872388
709.310	75.703681
709.519	75.639341
709.728	75.479763
709.937	75.326288
710.146	75.379151
710.355	75.611107
710.564	75.794588
710.773	75.890861
710.982	76.030196
711.191	76.227841
711.400	76.446431
711.609	76.442986
711.818	76.373106
712.027	76.424285
712.235	76.721401
712.444	76.958256
712.653	77.125483
712.862	77.206811
713.071	77.260752
713.279	77.141477
713.488	76.825538
713.697	76.501640
713.906	76.464605
714.114	76.679387
714.323	76.926896
714.532	76.772317
714.740	76.414808
714.949	75.998312
715.157	75.667924
715.366	75.398718
715.575	75.428912
715.783	75.653986
715.992	75.750017
716.200	75.679154
716.409	75.419434
716.617	75.159844
716.826	75.053561
717.034	75.034077
717.242	75.112394
717.451	75.081117
717.659	74.904397
717.868	74.640052
718.076	74.418571
718.284	74.374087
718.493	74.419862
718.701	74.578565
718.909	74.709284
719.118	74.844577
719.326	74.947121
719.534	74.940209
719.742	74.977910
719.951	75.288183
720.159	75.610681
720.367	75.865690
720.575	75.910534
720.783	75.895544
720.991	76.029807
721.199	76.046430
721.408	75.895599
721.616	75.869271
721.824	75.808089
722.032	75.836683
722.240	75.656096
722.448	75.335832
722.656	74.962213
722.864	74.827817
723.072	74.783771
723.280	74.461777
723.487	74.294123
723.695	74.162180
723.903	74.086431
724.111	74.250634
724.319	74.309348
724.527	74.239805
724.735	74.307159
724.942	74.470876
725.150	74.480453
725.358	74.301920
725.566	74.229267
725.773	74.252734
725.981	74.314644
726.189	74.103193
726.396	73.775638
726.604	73.594265
726.812	73.575479
727.019	73.506485
727.227	73.386080
727.435	73.423570
727.642	73.492334
727.850	73.438336
728.057	73.285928
728.265	73.144867
728.472	73.197239
728.680	73.280435
728.887	73.206016
729.095	73.066186
729.302	72.946084
729.509	72.708643
729.717	72.499555
729.924	72.432034
730.132	72.589417
730.339	72.684994
730.546	72.729829
730.753	72.709298
730.961	72.553807
731.168	72.483963
731.375	72.467140
731.583	72.377107
731.790	72.480690
731.997	72.469428
732.204	72.483009
732.411	72.441332
732.618	72.184435
732.826	72.035722
733.033	71.917481
733.240	71.713696
733.447	71.426797
733.654	71.370963
733.861	71.459436
734.068	71.357012
734.275	71.307158
734.482	71.177289
734.689	71.161542
734.896	71.557573
735.103	71.944074
735.310	72.231812
735.517	72.573091
735.724	72.828382
735.931	72.696031
736.137	72.546040
736.344	72.576729
736.551	72.656478
736.758	72.794996
736.965	72.773195
737.171	72.436299
737.378	72.090285
737.585	71.759250
737.792	71.482087
737.998	71.282656
738.205	71.315944
738.412	71.493544
738.618	71.538190
738.825	71.378184
739.032	71.149765
739.238	70.932523
739.445	70.912980
739.651	70.689627
739.858	70.528008
740.064	70.482090
740.271	70.638225
740.477	70.688596
740.684	70.452533
740.890	70.287844
741.097	70.233104
741.303	70.168726
741.510	69.981466
741.716	69.720821
741.922	69.605559
742.129	69.751297
742.335	69.889158
742.541	69.746061
742.748	69.518937
742.954	69.391707
743.160	69.395544
743.366	69.507983
743.573	69.598354
743.779	69.748821
743.985	69.895629
744.191	70.071994
744.397	69.848574
744.604	69.456678
744.810	69.241058
745.016	69.113583
745.222	69.000785
745.428	68.594354
745.634	68.264125
745.840	68.101645
746.046	67.685328
746.252	67.310458
746.458	67.025488
746.664	67.028968
746.870	67.163263
747.076	67.218966
747.282	67.286969
747.488	67.215214
747.694	67.184515
747.900	67.097019
748.105	66.945917
748.311	67.092000
748.517	67.312024
748.723	67.472964
748.929	67.291677
749.134	67.004740
749.340	66.841502
749.546	66.690202
749.752	66.661336
749.957	66.766457
750.163	66.746415
750.369	66.542926
750.574	66.231489
750.780	65.986025
750.985	65.909175
751.191	65.994660
751.397	66.210107
751.602	66.462471
751.808	66.631582
752.013	66.696540
752.219	66.634226
752.424	66.516135
752.630	66.700368
752.835	67.036305
753.041	67.075159
753.246	66.867789
753.451	66.673780
753.657	66.285095
753.862	65.795818
754.067	65.408929
754.273	64.979300
754.478	64.626102
754.683	64.520118
754.889	64.316265
755.094	64.114872
755.299	63.930699
755.504	63.776678
755.710	63.685758
755.915	63.645597
756.120	63.444404
756.325	63.236242
756.530	63.177297
756.735	63.231350
756.940	63.227023
757.146	63.143126
757.351	62.986814
757.556	62.906154
757.761	62.674792
757.966	62.340509
758.171	62.114283
758.376	62.023434
758.581	61.875629
758.786	61.779909
758.990	61.518756
759.195	61.212429
759.400	60.843137
759.605	60.467308
759.810	60.107727
760.015	59.843194
760.220	59.728198
760.424	59.640585
760.629	59.523938
760.834	59.480352
761.039	59.506842
761.244	59.676787
761.448	59.602443
761.653	59.445482
761.858	59.371298
762.062	59.256200
762.267	59.072786
762.472	58.853507
762.676	58.486981
762.881	58.148798
763.085	57.894683
763.290	57.500750
763.494	56.957111
763.699	56.554674
763.903	56.338252
764.108	56.227699
764.312	56.139023
764.517	56.088751
764.721	55.955185
764.926	55.970259
765.130	56.107636
765.335	55.987411
765.539	55.898450
765.743	55.977782
765.948	55.935079
766.152	55.690110
766.356	55.388063
766.560	55.075047
766.765	54.759257
766.969	54.454840
767.173	54.128466
767.377	53.713266
767.582	53.590632
767.786	53.401174
767.990	53.046211
768.194	52.863503
768.398	52.800771
768.602	52.633615
768.806	52.471755
769.010	52.564900
769.215	52.653779
769.419	52.564537
769.623	52.403085
769.827	52.102951
770.031	51.831401
770.234	51.522194
770.438	51.202424
770.642	50.991920
770.846	50.851751
771.050	50.581181
771.254	50.107519
771.458	49.597906
771.662	49.322991
771.866	49.064025
772.069	48.797458
772.273	48.607305
772.477	48.291019
772.681	47.861722
772.885	47.512650
773.088	47.011729
773.292	46.637789
773.496	46.379080
773.699	46.284968
773.903	46.076134
774.107	45.800118
774.310	45.525920
774.514	45.021477
774.717	44.675817
774.921	44.468486
775.124	44.202165
775.328	44.059538
775.531	43.959444
775.735	43.764029
775.938	43.531498
776.142	43.255345
776.345	42.944191
776.549	42.681314
776.752	42.603868
776.956	42.607814
777.159	42.540476
777.362	42.429142
777.566	42.154870
777.769	41.865973
777.972	41.622198
778.176	41.233228
778.379	40.893561
778.582	40.795060
778.785	40.542265
778.989	40.210413
779.192	39.808704
779.395	39.410458
779.598	39.039609
779.801	38.796900
780.004	38.456214
780.207	38.093115
780.411	37.782664
780.614	37.481397
780.817	37.053135
781.020	36.562268
781.223	36.166500
781.426	35.885938
781.629	35.722166
781.832	35.430691
782.035	35.109268
782.238	34.802635
782.440	34.511428
782.643	34.143926
782.846	33.765159
783.049	33.481169
783.252	33.331876
783.455	33.243884
783.658	33.043232
783.860	32.572422
784.063	32.168744
784.266	31.816163
784.469	31.475706
784.671	31.162551
784.874	30.942765
785.077	30.794193
785.279	30.515593
785.482	30.197471
785.685	29.864458
785.887	29.543292
786.090	29.375282
786.293	29.200503
786.495	28.940712
786.698	28.753901
786.900	28.418939
787.103	28.040161
787.305	27.517149
787.508	27.019739
787.710	26.643274
787.913	26.145914
788.115	25.634806
788.317	25.186746
788.520	24.726680
788.722	24.281460
788.924	23.804726
789.127	23.347675
789.329	22.912201
789.531	22.612466
789.734	22.398003
789.936	22.125488
790.138	21.800595
790.340	21.534607
790.543	21.231839
790.745	20.904224
790.947	20.615034
791.149	20.350019
791.351	20.169112
791.553	19.995214
791.756	19.770679
791.958	19.500064
792.160	19.235557
792.362	18.990277
792.564	18.909795
792.766	18.781386
792.968	18.641978
793.170	18.407258
793.372	18.112847
793.574	17.814924
793.776	17.548685
793.978	17.292297
794.180	17.075733
794.381	16.789731
794.583	16.575286
794.785	16.281570
794.987	16.040672
795.189	15.769707
795.391	15.468335
795.592	15.257599
795.794	15.101947
795.996	14.861720
796.198	14.534538
796.399	14.149054
796.601	13.956493
796.803	13.611892
797.004	13.176837
797.206	12.877681
797.407	12.587595
797.609	12.426200
797.811	12.285978
798.012	12.077833
798.214	11.873739
798.415	11.811814
798.617	11.759819
798.818	11.556576
799.020	11.562397
799.221	11.561969
799.423	11.393110
799.624	11.284246
799.826	11.197239
800.027	11.058283
800.228	10.956286
800.430	10.834855
800.631	10.615597
800.832	10.472743
801.034	10.389678
801.235	10.221677
801.436	10.053122
801.637	9.787658
801.839	9.556262
802.040	9.423091
802.241	9.293128
802.442	9.078703
802.643	8.955515
802.844	8.864877
803.046	8.700776
803.247	8.644450
803.448	8.549912
803.649	8.362847
803.850	8.448240
804.051	8.530761
804.252	8.510642
804.453	8.482402
804.654	8.448397
804.855	8.430669
805.056	8.489300
805.257	8.542854
805.458	8.486489
805.659	8.521223
805.859	8.631401
806.060	8.655359
806.261	8.638402
806.462	8.572335
806.663	8.474264
806.864	8.518572
807.064	8.565150
807.265	8.568202
807.466	8.573245
807.667	8.549336
807.867	8.419441
808.068	8.312364
808.269	8.241613
808.469	8.298768
808.670	8.397411
808.870	8.472044
809.071	8.517039
809.272	8.626940
809.472	8.790958
809.673	8.944038
809.873	9.143069
810.074	9.414298
810.274	9.661062
810.475	9.885438
810.675	9.951685
810.876	10.070453
811.076	10.291494
811.276	10.393233
811.477	10.411487
811.677	10.400110
811.878	10.459095
812.078	10.495236
812.278	10.462828
812.479	10.493531
812.679	10.506806
812.879	10.625496
813.079	10.723592
813.280	10.768475
813.480	10.965885
813.680	11.283087
813.880	11.408742
814.080	11.458639
814.280	11.545536
814.480	11.735831
814.681	11.929597
814.881	12.154904
815.081	12.347834
815.281	12.522836
815.481	12.798558
815.681	13.083645
815.881	13.188209
816.081	13.361049
816.281	13.685160
816.481	14.053947
816.681	14.350291
816.880	14.699206
817.080	14.957108
817.280	15.133993
817.480	15.340224
817.680	15.534124
817.880	15.850081
818.080	16.098941
818.279	16.404079
818.479	16.612773
818.679	16.769613
818.879	16.908243
819.078	17.057076
819.278	17.261684
819.478	17.562431
819.677	17.878449
819.877	18.184752
820.077	18.357410
820.276	18.735455
820.476	19.039045
820.675	19.264597
820.875	19.569090
821.074	20.100726
821.274	20.513923
821.473	20.835499
821.673	21.083113
821.872	21.131777
822.072	21.203855
822.271	21.302599
822.471	21.362581
822.670	21.478313
822.869	21.625215
823.069	21.619959
823.268	21.582268
823.467	21.586274
823.667	21.691312
823.866	21.946386
824.065	22.373754
824.265	22.740859
824.464	23.062723
824.663	23.438567
824.862	23.922426
825.061	24.260159
825.261	24.731731
825.460	25.105085
825.659	25.407785
825.858	25.708286
826.057	25.797539
826.256	25.976401
826.455	26.233323
826.654	26.510569
826.853	26.718924
827.052	26.783186
827.251	27.083072
827.450	27.387138
827.649	27.693694
