Date	2025年07月03日木曜日 09時55分47秒
Spectrometers	SR401765
ダーク	使用
リファレンス	使用
積分時間[msec]	300
平均回数	1
ｽﾑｰｼﾞﾝｸﾞ	5
Electrical Dark	USE
ピクセル数	3648
計測モード	反射率
保存開始波長[nm]	598.495
保存終了波長[nm]	1274.802
保存ﾋﾟｯﾁ波長[nm]	全波長

>>>>>>>>>> Data Start <<<<<<<<<<<<
598.495	-296.201048
598.713	-296.201048
598.931	-296.201048
599.148	-296.201048
599.366	0.000000
599.584	0.000000
599.802	424.016910
600.020	63.366457
600.238	11.197332
600.455	138.481176
600.673	60.319595
600.891	46.596905
601.109	48.507811
601.326	49.073208
601.544	48.377739
601.762	48.509191
601.979	49.057453
602.197	49.230888
602.415	49.520907
602.632	49.704248
602.850	49.722418
603.067	49.806092
603.285	49.964246
603.502	50.055998
603.720	50.022290
603.938	50.321499
604.155	50.516385
604.372	50.504364
604.590	50.607665
604.807	50.791333
605.025	50.905917
605.242	51.139862
605.460	51.292307
605.677	51.383517
605.894	51.596587
606.112	51.993060
606.329	52.307885
606.546	52.719676
606.764	53.067123
606.981	53.238290
607.198	53.289796
607.415	53.409720
607.633	53.574232
607.850	53.901610
608.067	54.259702
608.284	54.512153
608.501	54.616290
608.718	54.705822
608.935	54.669539
609.153	54.862993
609.370	54.971141
609.587	55.104400
609.804	55.634768
610.021	55.860517
610.238	55.842527
610.455	55.703685
610.672	55.654172
610.889	55.760646
611.106	55.780099
611.323	55.826370
611.540	55.885345
611.756	56.070821
611.973	56.267469
612.190	56.127753
612.407	56.184040
612.624	56.468249
612.841	56.820260
613.057	57.176965
613.274	57.575643
613.491	58.111600
613.708	58.893964
613.925	59.410765
614.141	59.600790
614.358	59.815825
614.575	60.032282
614.791	60.156991
615.008	60.156847
615.225	60.305476
615.441	60.235850
615.658	60.049700
615.874	59.871115
616.091	59.584602
616.307	59.566050
616.524	59.827210
616.740	59.902802
616.957	60.147557
617.173	60.525286
617.390	60.801405
617.606	60.954810
617.823	61.408254
618.039	61.906427
618.256	62.356830
618.472	62.590034
618.688	62.668955
618.905	62.739549
619.121	63.000447
619.337	63.198069
619.554	63.167391
619.770	63.244815
619.986	63.302799
620.202	63.243303
620.419	63.256490
620.635	63.232209
620.851	63.167030
621.067	63.133488
621.283	63.233184
621.499	63.201238
621.716	62.994218
621.932	63.031289
622.148	63.176608
622.364	63.261251
622.580	63.275905
622.796	63.199307
623.012	63.363216
623.228	63.804958
623.444	64.118689
623.660	64.234466
623.876	64.460721
624.092	64.763276
624.308	65.174571
624.524	65.392616
624.740	65.649228
624.955	66.004756
625.171	66.138247
625.387	65.756884
625.603	65.561965
625.819	65.758417
626.034	65.986045
626.250	66.073783
626.466	66.210465
626.682	66.200553
626.897	66.139912
627.113	66.134372
627.329	66.093910
627.544	66.405029
627.760	67.033609
627.976	67.291803
628.191	67.246523
628.407	67.518520
628.623	67.903212
628.838	68.293286
629.054	68.656790
629.269	69.050530
629.485	69.539519
629.700	70.174076
629.916	70.777864
630.131	71.210925
630.347	71.578525
630.562	71.973183
630.777	71.987065
630.993	71.849258
631.208	71.670830
631.424	71.506937
631.639	71.580482
631.854	71.570473
632.070	71.325669
632.285	71.065883
632.500	70.920836
632.715	70.712718
632.931	70.629859
633.146	70.701152
633.361	70.843406
633.576	71.009948
633.791	71.167144
634.007	71.173338
634.222	71.292971
634.437	71.530430
634.652	71.613889
634.867	71.687300
635.082	72.034204
635.297	72.234628
635.512	72.410850
635.727	72.682736
635.942	72.951755
636.157	73.164318
636.372	73.234522
636.587	73.005993
636.802	72.708820
637.017	72.612881
637.232	72.686356
637.447	72.976545
637.662	73.357795
637.876	73.374565
638.091	73.061202
638.306	72.759470
638.521	72.491354
638.736	72.368329
638.951	72.384746
639.165	72.356503
639.380	72.350272
639.595	72.382501
639.809	72.161942
640.024	71.984961
640.239	72.157913
640.453	72.545813
640.668	72.884523
640.883	73.092044
641.097	73.255152
641.312	73.432837
641.526	73.662237
641.741	73.710472
641.955	73.548409
642.170	73.534216
642.384	73.566047
642.599	73.455173
642.813	73.587198
643.028	73.973781
643.242	74.452738
643.457	74.931365
643.671	75.108315
643.885	75.050258
644.100	75.136470
644.314	75.380520
644.528	75.539600
644.743	75.601045
644.957	75.874750
645.171	75.995334
645.386	75.555751
645.600	75.346510
645.814	75.299297
646.028	75.584093
646.242	75.877004
646.457	75.736745
646.671	75.459654
646.885	75.410749
647.099	75.508886
647.313	75.567347
647.527	75.492367
647.741	75.726440
647.955	75.867816
648.169	76.019640
648.383	76.154260
648.597	76.377565
648.811	76.770148
649.025	77.149578
649.239	77.504686
649.453	77.608130
649.667	77.482228
649.881	77.683085
650.095	77.749114
650.309	77.499193
650.523	77.333202
650.737	77.347072
650.950	77.545906
651.164	77.955451
651.378	78.485070
651.592	78.509076
651.805	78.443661
652.019	78.576949
652.233	78.614328
652.447	78.548593
652.660	78.590677
652.874	78.658082
653.088	78.623978
653.301	78.499370
653.515	78.345045
653.728	77.985046
653.942	77.793792
654.156	77.662763
654.369	77.427142
654.583	77.164900
654.796	77.329317
655.010	77.611058
655.223	77.675768
655.437	77.670676
655.650	77.610984
655.863	77.372382
656.077	77.305305
656.290	77.472712
656.504	77.746682
656.717	77.943259
656.930	78.070051
657.144	78.108088
657.357	78.266066
657.570	78.571291
657.783	78.843513
657.997	79.006883
658.210	79.131335
658.423	79.143855
658.636	79.026426
658.849	78.805141
659.063	78.756770
659.276	79.117686
659.489	79.433171
659.702	79.542754
659.915	79.369230
660.128	78.993811
660.341	78.928682
660.554	79.092160
660.767	79.486857
660.980	79.978183
661.193	80.226491
661.406	80.402268
661.619	80.384666
661.832	80.295576
662.045	80.255022
662.258	80.353233
662.471	80.616491
662.684	80.697974
662.897	80.596953
663.110	80.187006
663.322	79.692204
663.535	79.472733
663.748	79.318283
663.961	79.200152
664.174	79.077596
664.386	78.956764
664.599	79.081338
664.812	79.323316
665.024	79.494918
665.237	79.710117
665.450	79.937720
665.662	80.303786
665.875	80.865434
666.088	81.344440
666.300	81.398197
666.513	81.412727
666.725	81.664203
666.938	81.650755
667.150	81.345636
667.363	81.335978
667.575	81.512236
667.788	81.716811
668.000	81.840821
668.213	81.878118
668.425	81.897745
668.638	81.925938
668.850	82.000677
669.062	82.081493
669.275	82.403714
669.487	82.804678
669.699	83.023015
669.912	83.030231
670.124	82.974260
670.336	82.822751
670.548	82.706607
670.761	82.665751
670.973	82.791775
671.185	82.939392
671.397	82.703555
671.609	82.336786
671.822	82.034360
672.034	81.783642
672.246	81.707343
672.458	81.819110
672.670	81.995611
672.882	82.014840
673.094	81.873367
673.306	81.689490
673.518	81.621930
673.730	81.631583
673.942	81.502285
674.154	81.313690
674.366	81.330019
674.578	81.517287
674.790	81.618422
675.002	81.791348
675.214	81.903593
675.425	81.703883
675.637	81.393133
675.849	80.927561
676.061	80.583318
676.273	80.478529
676.484	80.614846
676.696	80.788385
676.908	81.090473
677.120	81.448879
677.331	81.375928
677.543	81.087888
677.755	81.211737
677.966	81.493265
678.178	81.758714
678.389	82.043324
678.601	82.279981
678.813	82.567306
679.024	82.550114
679.236	82.147209
679.447	81.767126
679.659	81.384697
679.870	81.203555
680.082	81.044760
680.293	80.689939
680.505	80.349579
680.716	80.273720
680.927	80.086817
681.139	79.641531
681.350	79.429821
681.562	79.376642
681.773	79.241062
681.984	79.391300
682.196	79.695383
682.407	80.067700
682.618	80.487460
682.829	80.814354
683.041	80.983505
683.252	81.315496
683.463	81.794004
683.674	81.956637
683.885	81.944504
684.097	81.820594
684.308	81.643427
684.519	81.279891
684.730	80.845571
684.941	80.441399
685.152	80.107721
685.363	79.742273
685.574	79.292287
685.785	78.895451
685.996	78.698130
686.207	78.571253
686.418	78.619458
686.629	78.747846
686.840	79.133311
687.051	79.565529
687.262	79.974891
687.473	80.335348
687.684	80.642576
687.894	80.953504
688.105	81.279971
688.316	81.518004
688.527	81.618360
688.738	81.560991
688.948	81.331265
689.159	80.764234
689.370	80.044173
689.580	79.699917
689.791	79.616899
690.002	79.497647
690.212	79.403864
690.423	79.244127
690.634	79.168365
690.844	79.124631
691.055	79.169228
691.266	79.417269
691.476	79.918257
691.687	80.582250
691.897	81.015328
692.108	81.151818
692.318	81.279805
692.529	81.279652
692.739	81.092404
692.949	80.993469
693.160	81.015444
693.370	81.220316
693.581	81.599924
693.791	81.896778
694.001	81.935519
694.212	81.881885
694.422	81.818038
694.632	81.695903
694.843	81.621565
695.053	81.854802
695.263	81.967567
695.473	81.949235
695.683	81.811897
695.894	81.413014
696.104	81.069431
696.314	80.961613
696.524	80.989176
696.734	81.173986
696.944	81.495614
697.154	81.650203
697.365	81.710088
697.575	81.531329
697.785	81.348635
697.995	81.091326
698.205	80.792092
698.415	80.413304
698.625	80.026818
698.834	79.638646
699.044	79.231105
699.254	78.896503
699.464	78.746817
699.674	78.371589
699.884	78.128957
700.094	77.903301
700.304	77.617210
700.513	77.476205
700.723	77.510991
700.933	77.740165
701.143	78.044380
701.353	78.241499
701.562	78.268165
701.772	78.323609
701.982	78.766551
702.191	79.108367
702.401	79.466522
702.611	79.876819
702.820	80.024731
703.030	80.164049
703.239	80.131094
703.449	79.903386
703.659	79.965792
703.868	80.172920
704.078	80.117359
704.287	79.664237
704.497	79.350456
704.706	79.110718
704.916	78.718171
705.125	78.537324
705.334	78.339522
705.544	78.172665
705.753	78.115955
705.962	77.812212
706.172	77.310665
706.381	77.141603
706.590	77.247859
706.800	77.277385
707.009	77.288700
707.218	77.732367
707.428	78.092509
707.637	78.211015
707.846	78.322268
708.055	78.721096
708.264	79.313342
708.474	79.829959
708.683	80.071900
708.892	80.066200
709.101	80.167919
709.310	80.375045
709.519	80.223898
709.728	79.918052
709.937	79.746669
710.146	79.511714
710.355	78.995657
710.564	78.304689
710.773	77.722783
710.982	77.302289
711.191	76.900675
711.400	76.645069
711.609	76.504892
711.818	76.415415
712.027	76.376358
712.235	76.409591
712.444	76.461945
712.653	76.341511
712.862	76.170474
713.071	76.196625
713.279	76.399921
713.488	76.783042
713.697	76.919439
713.906	76.680398
714.114	76.541121
714.323	76.542341
714.532	76.354445
714.740	76.065757
714.949	76.052982
715.157	76.278415
715.366	76.281890
715.575	76.096274
715.783	75.806250
715.992	75.442566
716.200	75.204180
716.409	74.957126
716.617	74.663629
716.826	74.422479
717.034	74.382942
717.242	74.396327
717.451	74.259732
717.659	74.102387
717.868	74.170197
718.076	74.559691
718.284	75.069658
718.493	75.442594
718.701	75.605033
718.909	75.832805
719.118	76.103843
719.326	76.209819
719.534	76.129358
719.742	76.048131
719.951	76.110682
720.159	75.905037
720.367	75.315788
720.575	74.956214
720.783	74.868537
720.991	74.947636
721.199	74.789528
721.408	74.300835
721.616	73.730145
721.824	73.405091
722.032	73.326098
722.240	73.220318
722.448	73.155374
722.656	73.351657
722.864	73.355089
723.072	73.050415
723.280	72.662114
723.487	72.542689
723.695	72.858566
723.903	73.430446
724.111	73.783854
724.319	73.841890
724.527	73.998382
724.735	74.399002
724.942	74.507091
725.150	74.352674
725.358	74.240804
725.566	74.264530
725.773	74.379766
725.981	74.335148
726.189	74.141727
726.396	73.904835
726.604	73.574131
726.812	73.117209
727.019	72.509675
727.227	72.029344
727.435	71.985144
727.642	72.155118
727.850	72.033065
728.057	71.507081
728.265	70.772443
728.472	70.067797
728.680	69.394082
728.887	68.981143
729.095	68.764070
729.302	68.283247
729.509	67.765954
729.717	67.395510
729.924	67.044733
730.132	67.020419
730.339	67.117950
730.546	67.337712
730.753	67.603260
730.961	67.999503
731.168	68.276537
731.375	68.270411
731.583	68.254401
731.790	68.210290
731.997	68.053067
732.204	67.922089
732.411	67.682593
732.618	67.528543
732.826	67.549735
733.033	67.541495
733.240	67.420605
733.447	67.257600
733.654	67.238079
733.861	67.450178
734.068	67.674566
734.275	67.870754
734.482	67.850060
734.689	67.679232
734.896	67.433807
735.103	67.252397
735.310	67.180558
735.517	67.022030
735.724	66.804473
735.931	66.464585
736.137	66.089431
736.344	65.931621
736.551	65.597893
736.758	65.348846
736.965	65.115912
737.171	64.666152
737.378	64.198586
737.585	63.751977
737.792	63.422304
737.998	63.260891
738.205	63.263356
738.412	63.294015
738.618	63.083646
738.825	62.823124
739.032	62.765534
739.238	62.829708
739.445	63.005758
739.651	62.887217
739.858	62.736104
740.064	62.611736
740.271	62.529391
740.477	62.298414
740.684	61.855400
740.890	61.435964
741.097	61.074788
741.303	60.543906
741.510	60.124986
741.716	59.901272
741.922	59.875463
742.129	59.911486
742.335	59.881635
742.541	59.574490
742.748	59.282472
742.954	59.151268
743.160	59.056471
743.366	58.978489
743.573	58.646609
743.779	58.102525
743.985	57.751055
744.191	57.522301
744.397	57.104904
744.604	56.633837
744.810	56.331431
745.016	55.980082
745.222	55.655995
745.428	55.122081
745.634	54.476881
745.840	54.100523
746.046	53.810156
746.252	53.376622
746.458	52.940129
746.664	52.717424
746.870	52.619432
747.076	52.479091
747.282	52.346117
747.488	52.132269
747.694	52.089407
747.900	52.179634
748.105	52.277411
748.311	52.343850
748.517	52.303270
748.723	52.014213
748.929	51.479337
749.134	51.045654
749.340	50.777410
749.546	50.561571
749.752	50.320005
749.957	50.091983
750.163	49.782500
750.369	49.390795
750.574	49.064452
750.780	48.836342
750.985	48.662410
751.191	48.458024
751.397	48.180221
751.602	47.906626
751.808	47.564942
752.013	47.226715
752.219	46.855983
752.424	46.461374
752.630	46.208795
752.835	45.783568
753.041	45.114624
753.246	44.640896
753.451	44.357220
753.657	43.869090
753.862	43.197010
754.067	42.457521
754.273	41.754380
754.478	41.106829
754.683	40.633114
754.889	40.191144
755.094	40.087325
755.299	40.018217
755.504	39.797255
755.710	39.517789
755.915	39.231320
756.120	38.832211
756.325	38.520925
756.530	38.181620
756.735	37.860293
756.940	37.557795
757.146	37.110888
757.351	36.531229
757.556	36.191867
757.761	35.700995
757.966	35.073018
758.171	34.592937
758.376	34.347309
758.581	34.067385
758.786	33.840639
758.990	33.557663
759.195	33.169638
759.400	32.740585
759.605	32.300604
759.810	31.755044
760.015	31.445105
760.220	31.324523
760.424	31.085258
760.629	30.747355
760.834	30.578454
761.039	30.506991
761.244	30.418739
761.448	30.135932
761.653	29.937983
761.858	29.732847
762.062	29.592993
762.267	29.439587
762.472	29.040330
762.676	28.656824
762.881	28.187783
763.085	27.607506
763.290	26.984223
763.494	26.338072
763.699	25.913472
763.903	25.460150
764.108	25.072178
764.312	24.683423
764.517	24.305240
764.721	24.035160
764.926	23.829007
765.130	23.615792
765.335	23.286706
765.539	22.993463
765.743	22.806195
765.948	22.546865
766.152	22.263934
766.356	21.892030
766.560	21.479706
766.765	20.996941
766.969	20.530746
767.173	20.088454
767.377	19.840675
767.582	19.840536
767.786	19.721332
767.990	19.508241
768.194	19.296672
768.398	19.051809
768.602	18.759888
768.806	18.474954
769.010	18.283232
769.215	18.082837
769.419	17.776634
769.623	17.436465
769.827	17.009578
770.031	16.682155
770.234	16.278367
770.438	15.947143
770.642	15.737198
770.846	15.614208
771.050	15.471766
771.254	15.295197
771.458	15.149700
771.662	15.002166
771.866	14.830151
772.069	14.716813
772.273	14.466116
772.477	14.293630
772.681	14.034375
772.885	13.779283
773.088	13.465128
773.292	13.170863
773.496	12.981210
773.699	12.770464
773.903	12.598979
774.107	12.411720
774.310	12.134528
774.514	11.984705
774.717	11.925449
774.921	11.897929
775.124	11.779989
775.328	11.648453
775.531	11.623708
775.735	11.465984
775.938	11.277411
776.142	11.158399
776.345	10.990820
776.549	10.876460
776.752	10.755568
776.956	10.522619
777.159	10.279142
777.362	10.194527
777.566	10.090540
777.769	9.995839
777.972	9.991172
778.176	10.063325
778.379	10.111543
778.582	10.237018
778.785	10.225464
778.989	10.357734
779.192	10.534546
779.395	10.676482
779.598	10.761208
779.801	10.905371
780.004	10.876641
780.207	10.879011
780.411	10.939257
780.614	10.981487
780.817	10.947466
781.020	10.941606
781.223	10.900723
781.426	10.929506
781.629	10.981927
781.832	11.061139
782.035	11.177265
782.238	11.368786
782.440	11.485428
782.643	11.439524
782.846	11.538421
783.049	11.825731
783.252	12.092362
783.455	12.273674
783.658	12.415507
783.860	12.538147
784.063	12.686633
784.266	12.783094
784.469	12.920028
784.671	13.061451
784.874	13.295132
785.077	13.363758
785.279	13.336098
785.482	13.553538
785.685	13.773690
785.887	13.896694
786.090	14.106129
786.293	14.381748
786.495	14.658226
786.698	14.997628
786.900	15.218682
787.103	15.394564
787.305	15.641344
787.508	15.964608
787.710	16.139708
787.913	16.338436
788.115	16.613169
788.317	16.831506
788.520	16.837452
788.722	16.866380
788.924	16.905823
789.127	17.111270
789.329	17.399316
789.531	17.628537
789.734	17.754602
789.936	17.964158
790.138	18.154953
790.340	18.421225
790.543	18.782238
790.745	19.163271
790.947	19.484950
791.149	19.792917
791.351	20.121535
791.553	20.488813
791.756	20.841641
791.958	21.216264
792.160	21.598569
792.362	21.862136
792.564	22.292750
792.766	22.711906
792.968	23.188723
793.170	23.690851
793.372	23.949108
793.574	24.079872
793.776	24.109903
793.978	24.248497
794.180	24.323176
794.381	24.351429
794.583	24.583779
794.785	24.699503
794.987	24.676640
795.189	24.695589
795.391	24.768626
795.592	25.073629
795.794	25.532062
795.996	26.024475
796.198	26.438252
796.399	26.927408
796.601	27.400198
796.803	27.641851
797.004	27.770673
797.206	28.069603
797.407	28.457710
797.609	28.822773
797.811	29.108527
798.012	29.290521
798.214	29.383249
798.415	29.581827
798.617	29.679195
798.818	29.762887
799.020	30.030313
799.221	30.350440
799.423	30.690671
799.624	30.981785
799.826	31.386633
800.027	31.801260
800.228	32.011778
800.430	32.251944
800.631	32.503242
800.832	32.849037
801.034	33.059887
801.235	33.169980
801.436	33.315129
801.637	33.288687
801.839	33.331780
802.040	33.384538
802.241	33.415575
802.442	33.583445
802.643	33.826892
802.844	33.961737
803.046	34.057662
803.247	34.320066
803.448	34.560531
803.649	34.735916
803.850	35.159316
804.051	35.557658
804.252	35.732030
804.453	35.812793
804.654	36.038494
804.855	36.372216
805.056	36.832081
805.257	37.213979
805.458	37.528696
805.659	38.023726
805.859	38.672216
806.060	39.263518
806.261	39.822378
806.462	40.498444
806.663	41.183414
806.864	41.761121
807.064	42.216134
807.265	42.492454
807.466	42.831044
807.667	43.227313
807.867	43.537466
808.068	43.814101
808.269	43.910528
808.469	44.013011
808.670	44.171329
808.870	44.255449
809.071	44.247557
809.272	44.475292
809.472	44.958209
809.673	45.584903
809.873	46.111746
810.074	46.599498
810.274	46.980542
810.475	47.526786
810.675	47.845765
810.876	47.851563
811.076	48.131443
811.276	48.484131
811.477	48.416724
811.677	48.059093
811.878	47.584614
812.078	47.474401
812.278	47.498259
812.479	47.488245
812.679	47.415065
812.879	47.401437
813.079	47.709358
813.280	47.749732
813.480	47.663597
813.680	47.815681
813.880	48.089538
814.080	48.371662
814.280	48.405444
814.480	48.304796
814.681	48.177036
814.881	47.972784
815.081	47.888188
815.281	47.715958
815.481	47.721197
815.681	47.994438
815.881	48.150908
816.081	48.171353
816.281	48.330684
816.481	48.743947
816.681	49.176454
816.880	49.689439
817.080	50.141625
817.280	50.460926
817.480	50.816469
817.680	51.297349
817.880	51.682182
818.080	52.010642
818.279	52.295629
818.479	52.515185
818.679	52.605216
818.879	52.719668
819.078	52.779357
819.278	52.892769
819.478	53.201608
819.677	53.598657
819.877	53.774390
820.077	53.825968
820.276	54.053924
820.476	54.643364
820.675	55.209617
820.875	55.373053
821.074	55.390909
821.274	55.735736
821.473	56.204151
821.673	56.467742
821.872	56.487362
822.072	56.477112
822.271	56.700165
822.471	56.904457
822.670	56.633207
822.869	56.233176
823.069	56.068997
823.268	55.996166
823.467	55.759171
823.667	55.605978
823.866	55.539238
824.065	55.775482
824.265	56.141670
824.464	56.493153
824.663	56.832082
824.862	57.388464
825.061	57.903599
825.261	58.465653
825.460	59.074629
825.659	59.486895
825.858	59.688161
826.057	59.858330
826.256	59.991705
826.455	60.098153
826.654	60.027788
826.853	60.017893
827.052	60.145992
