Date	2025年07月03日木曜日 09時53分13秒
Spectrometers	SR401765
ダーク	使用
リファレンス	使用
積分時間[msec]	300
平均回数	1
ｽﾑｰｼﾞﾝｸﾞ	5
Electrical Dark	USE
ピクセル数	3648
計測モード	反射率
保存開始波長[nm]	598.495
保存終了波長[nm]	1274.802
保存ﾋﾟｯﾁ波長[nm]	全波長

>>>>>>>>>> Data Start <<<<<<<<<<<<
598.495	33.333333
598.713	33.333333
598.931	33.333333
599.148	33.333333
599.366	0.000000
599.584	0.000000
599.802	-739.592576
600.020	-22.883917
600.238	78.094026
600.455	127.193747
600.673	103.272260
600.891	26.371637
601.109	22.342192
601.326	21.518962
601.544	20.712870
601.762	20.756762
601.979	20.941772
602.197	21.100374
602.415	21.107886
602.632	20.870632
602.850	20.794975
603.067	20.947848
603.285	21.158568
603.502	21.230580
603.720	21.412853
603.938	21.584749
604.155	21.676275
604.372	21.641115
604.590	21.575419
604.807	21.684137
605.025	21.972560
605.242	22.066913
605.460	21.950036
605.677	21.943097
605.894	21.857766
606.112	21.766185
606.329	21.881622
606.546	22.003131
606.764	22.256034
606.981	22.496737
607.198	22.567619
607.415	22.524473
607.633	22.687178
607.850	22.939928
608.067	23.036428
608.284	23.324463
608.501	23.615396
608.718	23.854683
608.935	24.094437
609.153	24.255683
609.370	24.453188
609.587	24.608705
609.804	24.978255
610.021	25.262732
610.238	25.408827
610.455	25.522043
610.672	25.608058
610.889	25.683544
611.106	25.749477
611.323	25.848197
611.540	26.080699
611.756	26.267333
611.973	26.371114
612.190	26.306044
612.407	26.529052
612.624	26.718617
612.841	27.014880
613.057	27.356008
613.274	27.521543
613.491	27.750588
613.708	28.028317
613.925	28.148657
614.141	28.279228
614.358	28.730568
614.575	29.117447
614.791	29.124223
615.008	29.329642
615.225	29.504852
615.441	29.769180
615.658	30.059736
615.874	30.199538
616.091	30.355322
616.307	30.482701
616.524	30.677931
616.740	30.826207
616.957	31.077807
617.173	31.438442
617.390	31.652545
617.606	31.889197
617.823	32.140772
618.039	32.467209
618.256	32.876999
618.472	33.111882
618.688	33.425432
618.905	33.666040
619.121	33.809012
619.337	33.947689
619.554	34.030173
619.770	34.198162
619.986	34.315255
620.202	34.308708
620.419	34.290376
620.635	34.377151
620.851	34.652852
621.067	34.967597
621.283	35.244917
621.499	35.547579
621.716	35.780138
621.932	36.135542
622.148	36.595136
622.364	36.960669
622.580	37.205417
622.796	37.438529
623.012	37.614399
623.228	37.762676
623.444	37.866075
623.660	38.130324
623.876	38.291845
624.092	38.475688
624.308	38.756725
624.524	38.704821
624.740	38.830627
624.955	39.340133
625.171	39.730685
625.387	39.906450
625.603	40.049596
625.819	40.204587
626.034	40.365547
626.250	40.601392
626.466	40.829222
626.682	40.886134
626.897	41.106783
627.113	41.153838
627.329	41.108104
627.544	41.271847
627.760	41.545377
627.976	41.810479
628.191	42.049234
628.407	42.266420
628.623	42.517081
628.838	42.747566
629.054	43.002531
629.269	43.205786
629.485	43.559434
629.700	43.942013
629.916	44.341086
630.131	44.722295
630.347	44.956276
630.562	45.230155
630.777	45.459381
630.993	45.579679
631.208	45.800620
631.424	46.035363
631.639	46.327871
631.854	46.548495
632.070	46.575740
632.285	46.566708
632.500	46.733973
632.715	46.876573
632.931	47.055092
633.146	47.218496
633.361	47.484734
633.576	47.799969
633.791	48.098980
634.007	48.382607
634.222	48.530657
634.437	48.662392
634.652	48.784967
634.867	48.676196
635.082	48.859929
635.297	49.097285
635.512	49.394875
635.727	49.683140
635.942	49.777389
636.157	49.926829
636.372	50.142416
636.587	50.473248
636.802	50.885732
637.017	51.291918
637.232	51.727607
637.447	51.995477
637.662	52.317227
637.876	52.556576
638.091	52.593720
638.306	52.816533
638.521	53.081543
638.736	53.060475
638.951	53.043545
639.165	53.135959
639.380	53.298084
639.595	53.420658
639.809	53.507224
640.024	53.523432
640.239	53.685575
640.453	53.855959
640.668	53.900611
640.883	53.918341
641.097	54.238356
641.312	54.475454
641.526	54.526456
641.741	54.548913
641.955	54.692926
642.170	54.929804
642.384	55.077281
642.599	54.979211
642.813	55.228374
643.028	55.542547
643.242	55.711001
643.457	55.806549
643.671	56.031339
643.885	56.393987
644.100	56.715747
644.314	56.933245
644.528	57.155452
644.743	57.331596
644.957	57.677362
645.171	57.929174
645.386	58.049687
645.600	58.282950
645.814	58.591878
646.028	58.754986
646.242	58.841013
646.457	58.902250
646.671	58.996253
646.885	59.209314
647.099	59.390539
647.313	59.384081
647.527	59.424160
647.741	59.607187
647.955	59.779492
648.169	59.853013
648.383	60.059781
648.597	60.187963
648.811	60.282129
649.025	60.486547
649.239	60.529457
649.453	60.642466
649.667	60.877741
649.881	61.143892
650.095	61.340176
650.309	61.486258
650.523	61.759488
650.737	61.989120
650.950	62.233250
651.164	62.488552
651.378	62.760439
651.592	62.883979
651.805	62.989725
652.019	63.225450
652.233	63.362924
652.447	63.450867
652.660	63.613069
652.874	63.775979
653.088	63.872339
653.301	64.001350
653.515	64.148163
653.728	64.107932
653.942	64.283953
654.156	64.470816
654.369	64.590116
654.583	64.662641
654.796	64.863669
655.010	64.990979
655.223	65.015879
655.437	65.009702
655.650	65.060944
655.863	65.139622
656.077	65.245995
656.290	65.320161
656.504	65.424504
656.717	65.419701
656.930	65.386403
657.144	65.238453
657.357	65.262956
657.570	65.415333
657.783	65.642918
657.997	65.756591
658.210	65.923713
658.423	66.175019
658.636	66.402447
658.849	66.463749
659.063	66.660820
659.276	66.899353
659.489	67.068683
659.702	67.178350
659.915	67.197866
660.128	67.160432
660.341	67.281813
660.554	67.463316
660.767	67.486934
660.980	67.478500
661.193	67.542298
661.406	67.530404
661.619	67.633397
661.832	67.942607
662.045	68.128675
662.258	68.296734
662.471	68.529249
662.684	68.630050
662.897	68.616960
663.110	68.669793
663.322	68.769507
663.535	68.958536
663.748	69.166388
663.961	69.407031
664.174	69.439638
664.386	69.436327
664.599	69.543762
664.812	69.558775
665.024	69.609851
665.237	69.661380
665.450	69.742992
665.662	69.885807
665.875	70.005700
666.088	70.114791
666.300	70.124978
666.513	70.192231
666.725	70.258391
666.938	70.215763
667.150	70.312071
667.363	70.407553
667.575	70.444343
667.788	70.625555
668.000	70.733479
668.213	70.829244
668.425	70.885654
668.638	70.766238
668.850	70.673260
669.062	70.726488
669.275	70.923144
669.487	71.083321
669.699	71.213554
669.912	71.459976
670.124	71.568167
670.336	71.678947
670.548	71.892822
670.761	72.107791
670.973	72.367561
671.185	72.560934
671.397	72.580477
671.609	72.520386
671.822	72.427479
672.034	72.303283
672.246	72.200854
672.458	72.252420
672.670	72.310745
672.882	72.238128
673.094	72.061724
673.306	71.879561
673.518	71.843976
673.730	72.014844
673.942	72.192063
674.154	72.365634
674.366	72.611725
674.578	72.839457
674.790	72.901874
675.002	72.759176
675.214	72.819358
675.425	73.039012
675.637	73.176961
675.849	73.313830
676.061	73.174189
676.273	73.103396
676.484	73.133479
676.696	73.048852
676.908	72.876601
677.120	72.892097
677.331	73.236184
677.543	73.325216
677.755	73.263932
677.966	73.442574
678.178	73.567010
678.389	73.743365
678.601	73.712542
678.813	73.736946
679.024	73.900025
679.236	74.122473
679.447	74.138035
679.659	73.957485
679.870	73.836406
680.082	73.841784
680.293	73.792165
680.505	73.815752
680.716	73.951220
680.927	74.138539
681.139	74.148985
681.350	74.248603
681.562	74.363440
681.773	74.392235
681.984	74.438702
682.196	74.471599
682.407	74.607953
682.618	74.630249
682.829	74.446405
683.041	74.278170
683.252	74.320684
683.463	74.503195
683.674	74.619654
683.885	74.660295
684.097	74.591824
684.308	74.620679
684.519	74.669569
684.730	74.444731
684.941	74.293515
685.152	74.391174
685.363	74.493756
685.574	74.492574
685.785	74.394289
685.996	74.240162
686.207	74.128520
686.418	74.173526
686.629	74.200022
686.840	74.230997
687.051	74.347655
687.262	74.486449
687.473	74.592539
687.684	74.681812
687.894	74.619347
688.105	74.720900
688.316	74.867208
688.527	75.016197
688.738	75.182587
688.948	75.212740
689.159	75.237082
689.370	75.374440
689.580	75.582353
689.791	75.721949
690.002	75.670881
690.212	75.691985
690.423	75.560996
690.634	75.402412
690.844	75.286082
691.055	75.315200
691.266	75.300492
691.476	75.236393
691.687	75.153024
691.897	75.014407
692.108	75.084837
692.318	75.312125
692.529	75.426813
692.739	75.421162
692.949	75.457412
693.160	75.464913
693.370	75.425345
693.581	75.583296
693.791	75.792401
694.001	75.882359
694.212	75.954557
694.422	75.730524
694.632	75.499700
694.843	75.511140
695.053	75.759742
695.263	75.927488
695.473	76.108869
695.683	76.324667
695.894	76.306970
696.104	76.305702
696.314	76.319549
696.524	76.200805
696.734	76.178695
696.944	76.343226
697.154	76.342657
697.365	76.388258
697.575	76.445362
697.785	76.414788
697.995	76.219383
698.205	76.187986
698.415	76.203885
698.625	76.170696
698.834	76.322000
699.044	76.464774
699.254	76.431501
699.464	76.433811
699.674	76.411135
699.884	76.302558
700.094	76.257929
700.304	76.309321
700.513	76.360975
700.723	76.358845
700.933	76.366376
701.143	76.353524
701.353	76.278528
701.562	76.189891
701.772	76.072218
701.982	75.961829
702.191	76.022893
702.401	76.037221
702.611	75.964459
702.820	75.759263
703.030	75.616262
703.239	75.588974
703.449	75.527935
703.659	75.557789
703.868	75.603189
704.078	75.705261
704.287	75.743621
704.497	75.605773
704.706	75.527673
704.916	75.585138
705.125	75.793287
705.334	75.886685
705.544	75.955398
705.753	75.977578
705.962	75.956626
706.172	75.978827
706.381	76.064659
706.590	76.132045
706.800	76.258900
707.009	76.202954
707.218	76.117993
707.428	76.061553
707.637	76.120047
707.846	76.108856
708.055	76.084615
708.264	76.088974
708.474	76.131140
708.683	76.159258
708.892	76.126740
709.101	76.011931
709.310	76.079901
709.519	76.085508
709.728	75.922394
709.937	75.691277
710.146	75.624914
710.355	75.811294
710.564	75.927727
710.773	76.022888
710.982	76.098124
711.191	76.087516
711.400	76.158614
711.609	76.147987
711.818	76.159898
712.027	76.237916
712.235	76.296137
712.444	76.338047
712.653	76.253577
712.862	76.262931
713.071	76.189028
713.279	75.978161
713.488	75.891079
713.697	75.855397
713.906	75.943487
714.114	75.976753
714.323	76.069974
714.532	76.216802
714.740	76.173564
714.949	76.070251
715.157	75.948511
715.366	75.779644
715.575	75.779858
715.783	75.965524
715.992	76.163059
716.200	76.096885
716.409	76.155683
716.617	76.071377
716.826	75.919198
717.034	75.976551
717.242	76.087873
717.451	76.121225
717.659	76.142553
717.868	75.996917
718.076	75.783287
718.284	75.507756
718.493	75.309401
718.701	75.087466
718.909	75.034493
719.118	75.008146
719.326	74.925618
719.534	74.776759
719.742	74.621441
719.951	74.694948
720.159	74.836369
720.367	74.870279
720.575	74.882509
720.783	74.921452
720.991	74.958717
721.199	74.891020
721.408	74.835723
721.616	74.751200
721.824	74.755201
722.032	74.914145
722.240	74.843066
722.448	74.680984
722.656	74.548840
722.864	74.447110
723.072	74.458171
723.280	74.320853
723.487	74.280028
723.695	74.318995
723.903	74.331282
724.111	74.379812
724.319	74.464063
724.527	74.554490
724.735	74.716169
724.942	74.840750
725.150	74.943070
725.358	74.933112
725.566	74.991174
725.773	74.988840
725.981	74.898703
726.189	74.908238
726.396	74.773052
726.604	74.558627
726.812	74.542250
727.019	74.473437
727.227	74.215109
727.435	74.059781
727.642	74.002811
727.850	73.924885
728.057	73.875272
728.265	73.744855
728.472	73.641472
728.680	73.634909
728.887	73.555843
729.095	73.476700
729.302	73.437332
729.509	73.396210
729.717	73.319932
729.924	73.333214
730.132	73.444791
730.339	73.424396
730.546	73.501098
730.753	73.589668
730.961	73.670458
731.168	73.767579
731.375	73.658647
731.583	73.531799
731.790	73.559713
731.997	73.575954
732.204	73.501109
732.411	73.315957
732.618	73.250514
732.826	73.200811
733.033	73.081386
733.240	72.863809
733.447	72.571947
733.654	72.459439
733.861	72.402407
734.068	72.278194
734.275	72.190358
734.482	72.124264
734.689	72.239930
734.896	72.395304
735.103	72.624468
735.310	72.708432
735.517	72.770460
735.724	72.904996
735.931	72.839375
736.137	72.718286
736.344	72.864063
736.551	73.035521
736.758	73.148162
736.965	73.131795
737.171	72.973172
737.378	72.727510
737.585	72.587240
737.792	72.402946
737.998	72.145790
738.205	72.081345
738.412	72.221273
738.618	72.141465
738.825	71.908665
739.032	71.782483
739.238	71.650970
739.445	71.715586
739.651	71.649050
739.858	71.568694
740.064	71.564165
740.271	71.634318
740.477	71.589589
740.684	71.433808
740.890	71.384894
741.097	71.271716
741.303	71.108377
741.510	71.073003
741.716	70.869458
741.922	70.668813
742.129	70.596118
742.335	70.640006
742.541	70.639622
742.748	70.683013
742.954	70.560988
743.160	70.367359
743.366	70.451112
743.573	70.592853
743.779	70.614783
743.985	70.647294
744.191	70.785190
744.397	70.764815
744.604	70.576901
744.810	70.436342
745.016	70.357704
745.222	70.412813
745.428	70.362621
745.634	70.116435
745.840	69.867973
746.046	69.612290
746.252	69.418533
746.458	69.239726
746.664	69.169801
746.870	69.193938
747.076	69.198926
747.282	69.128013
747.488	68.935099
747.694	68.814148
747.900	68.824929
748.105	68.793530
748.311	68.714670
748.517	68.710727
748.723	68.692432
748.929	68.606969
749.134	68.457819
749.340	68.284290
749.546	68.069976
749.752	67.981284
749.957	67.959482
750.163	67.924422
750.369	67.817114
750.574	67.738663
750.780	67.548973
750.985	67.442765
751.191	67.361811
751.397	67.354034
751.602	67.548562
751.808	67.774934
752.013	67.870168
752.219	67.858295
752.424	67.784890
752.630	67.765907
752.835	67.788893
753.041	67.829046
753.246	67.804746
753.451	67.697929
753.657	67.595560
753.862	67.312927
754.067	66.939946
754.273	66.618628
754.478	66.369036
754.683	66.238746
754.889	66.032113
755.094	65.883368
755.299	65.778305
755.504	65.629239
755.710	65.433061
755.915	65.196735
756.120	64.863481
756.325	64.615817
756.530	64.675039
756.735	64.772390
756.940	64.654273
757.146	64.499785
757.351	64.262249
757.556	64.060949
757.761	63.937042
757.966	64.004581
758.171	64.003903
758.376	64.071488
758.581	64.137806
758.786	63.827010
758.990	63.531134
759.195	63.360122
759.400	63.244313
759.605	63.204113
759.810	63.032828
760.015	62.727672
760.220	62.433886
760.424	62.219722
760.629	61.936056
760.834	61.761383
761.039	61.712285
761.244	61.744305
761.448	61.775380
761.653	61.730594
761.858	61.465267
762.062	61.155526
762.267	60.940434
762.472	60.636118
762.676	60.403018
762.881	60.320229
763.085	60.165525
763.290	60.005308
763.494	59.707551
763.699	59.312874
763.903	59.067834
764.108	59.092605
764.312	59.214938
764.517	59.254593
764.721	59.258035
764.926	59.316888
765.130	59.310751
765.335	59.216019
765.539	59.130226
765.743	58.935398
765.948	58.759118
766.152	58.604187
766.356	58.366297
766.560	58.112826
766.765	57.861507
766.969	57.642512
767.173	57.281376
767.377	56.910794
767.582	56.714944
767.786	56.545728
767.990	56.433318
768.194	56.393092
768.398	56.194025
768.602	56.008467
768.806	55.953590
769.010	55.820434
769.215	55.656124
769.419	55.479062
769.623	55.546022
769.827	55.401512
770.031	55.181071
770.234	54.972525
770.438	54.664405
770.642	54.383235
770.846	54.175311
771.050	53.822350
771.254	53.622251
771.458	53.368118
771.662	53.103849
771.866	52.711569
772.069	52.452600
772.273	52.229559
772.477	52.034989
772.681	51.852736
772.885	51.679725
773.088	51.343653
773.292	51.074511
773.496	50.824986
773.699	50.615040
773.903	50.543400
774.107	50.305457
774.310	50.059232
774.514	49.757519
774.717	49.432054
774.921	49.119152
775.124	48.895058
775.328	48.777492
775.531	48.634964
775.735	48.409525
775.938	48.194083
776.142	47.919251
776.345	47.662230
776.549	47.332897
776.752	47.104094
776.956	46.989220
777.159	46.901401
777.362	46.740937
777.566	46.503988
777.769	46.256952
777.972	45.992916
778.176	45.744033
778.379	45.390300
778.582	45.138357
778.785	44.948301
778.989	44.811732
779.192	44.459930
779.395	44.087162
779.598	43.947513
779.801	43.754432
780.004	43.440509
780.207	43.122282
780.411	42.799788
780.614	42.616311
780.817	42.380718
781.020	41.984801
781.223	41.604784
781.426	41.319360
781.629	41.064432
781.832	40.526813
782.035	40.118445
782.238	39.853810
782.440	39.623112
782.643	39.297954
782.846	38.863380
783.049	38.468614
783.252	38.337332
783.455	38.199885
783.658	38.008906
783.860	37.757493
784.063	37.478616
784.266	37.130464
784.469	36.778723
784.671	36.398964
784.874	36.085228
785.077	35.888084
785.279	35.660174
785.482	35.272944
785.685	34.912567
785.887	34.621934
786.090	34.347689
786.293	34.139084
786.495	33.884785
786.698	33.702122
786.900	33.443650
787.103	33.179388
787.305	32.868490
787.508	32.591607
787.710	32.317594
787.913	31.996801
788.115	31.668281
788.317	31.324216
788.520	30.979372
788.722	30.623628
788.924	30.089251
789.127	29.733209
789.329	29.353823
789.531	28.995566
789.734	28.692699
789.936	28.338152
790.138	27.846260
790.340	27.394242
790.543	27.105726
790.745	26.794005
790.947	26.505264
791.149	26.182812
791.351	25.837998
791.553	25.593956
791.756	25.291952
791.958	24.903738
792.160	24.593345
792.362	24.394329
792.564	24.170672
792.766	23.851199
792.968	23.551564
793.170	23.289964
793.372	23.175772
793.574	22.954539
793.776	22.714638
793.978	22.560890
794.180	22.363146
794.381	22.127461
794.583	21.896111
794.785	21.729619
794.987	21.542144
795.189	21.313875
795.391	20.962561
795.592	20.623898
795.794	20.338947
795.996	20.062441
796.198	19.660564
796.399	19.265773
796.601	18.968057
796.803	18.629405
797.004	18.190745
797.206	17.722182
797.407	17.322560
797.609	17.024084
797.811	16.790080
798.012	16.625068
798.214	16.283178
798.415	16.084878
798.617	15.929246
798.818	15.727733
799.020	15.539596
799.221	15.451336
799.423	15.487533
799.624	15.469817
799.826	15.481681
800.027	15.252203
800.228	14.931708
800.430	14.840938
800.631	14.562097
800.832	14.365595
801.034	14.108908
801.235	13.778165
801.436	13.533519
801.637	13.194417
801.839	12.817681
802.040	12.487841
802.241	12.330167
802.442	12.215279
802.643	11.994956
802.844	11.834922
803.046	11.628815
803.247	11.520548
803.448	11.425725
803.649	11.200128
803.850	11.005320
804.051	10.831225
804.252	10.656697
804.453	10.497589
804.654	10.287381
804.855	10.150271
805.056	10.057444
805.257	10.009642
805.458	9.930476
805.659	9.885976
805.859	9.838701
806.060	9.767908
806.261	9.798493
806.462	9.730515
806.663	9.591287
806.864	9.594499
807.064	9.672024
807.265	9.742299
807.466	9.756563
807.667	9.737851
807.867	9.637307
808.068	9.508676
808.269	9.453332
808.469	9.459879
808.670	9.504231
808.870	9.501660
809.071	9.453531
809.272	9.302144
809.472	9.224371
809.673	9.110267
809.873	9.013735
810.074	9.122862
810.274	9.207207
810.475	9.264202
810.675	9.314075
810.876	9.370125
811.076	9.501851
811.276	9.517930
811.477	9.545035
811.677	9.541465
811.878	9.584102
812.078	9.673196
812.278	9.630492
812.479	9.704659
812.679	9.686585
812.879	9.607307
813.079	9.569862
813.280	9.598020
813.480	9.786581
813.680	10.021201
813.880	10.169502
814.080	10.108855
814.280	10.084780
814.480	10.188007
814.681	10.224865
814.881	10.327055
815.081	10.470669
815.281	10.536635
815.481	10.562698
815.681	10.613807
815.881	10.593195
816.081	10.616204
816.281	10.905937
816.481	11.132004
816.681	11.335670
816.880	11.557056
817.080	11.752073
817.280	11.917956
817.480	12.160437
817.680	12.402062
817.880	12.605313
818.080	12.844431
818.279	13.096974
818.479	13.215544
818.679	13.379295
818.879	13.452215
819.078	13.549099
819.278	13.747381
819.478	13.959152
819.677	14.111844
819.877	14.228295
820.077	14.317279
820.276	14.491378
820.476	14.749383
820.675	14.983722
820.875	15.231307
821.074	15.460532
821.274	15.735719
821.473	16.008608
821.673	16.122829
821.872	16.221572
822.072	16.456023
822.271	16.755527
822.471	16.869008
822.670	16.919731
822.869	17.143430
823.069	17.269873
823.268	17.553197
823.467	17.708241
823.667	17.808177
823.866	18.107752
824.065	18.496328
824.265	18.822875
824.464	19.103345
824.663	19.554541
824.862	19.876722
825.061	20.075605
825.261	20.357647
825.460	20.639561
825.659	20.907865
825.858	21.146360
826.057	21.305689
826.256	21.365277
826.455	21.346504
826.654	21.462226
826.853	21.575816
827.052	21.846580
827.251	22.181118
827.450	22.551576
827.649	22.798933
