Date	2025年07月03日木曜日 09時53分59秒
Spectrometers	SR401765
ダーク	使用
リファレンス	使用
積分時間[msec]	300
平均回数	1
ｽﾑｰｼﾞﾝｸﾞ	5
Electrical Dark	USE
ピクセル数	3648
計測モード	反射率
保存開始波長[nm]	598.495
保存終了波長[nm]	1274.802
保存ﾋﾟｯﾁ波長[nm]	全波長

>>>>>>>>>> Data Start <<<<<<<<<<<<
598.495	27500.502133
598.713	27500.502133
598.931	27500.502133
599.148	27500.502133
599.366	0.000000
599.584	0.000000
599.802	2452.260231
600.020	111.690596
600.238	36.265847
600.455	152.601398
600.673	52.329216
600.891	23.405153
601.109	25.161525
601.326	25.840013
601.544	25.420437
601.762	25.363606
601.979	25.366092
602.197	25.434778
602.415	25.751966
602.632	25.962392
602.850	26.013313
603.067	26.214891
603.285	26.553894
603.502	26.789971
603.720	26.877306
603.938	27.129941
604.155	27.415807
604.372	27.703627
604.590	27.905148
604.807	28.060373
605.025	28.086539
605.242	28.164709
605.460	28.220990
605.677	28.188765
605.894	28.189989
606.112	28.409811
606.329	28.521885
606.546	28.681270
606.764	28.873534
606.981	29.030231
607.198	29.176306
607.415	29.440384
607.633	29.752750
607.850	30.232459
608.067	30.556452
608.284	30.563419
608.501	30.565515
608.718	30.772137
608.935	30.930078
609.153	31.161908
609.370	31.503046
609.587	31.614684
609.804	31.754389
610.021	31.694850
610.238	31.486753
610.455	31.404161
610.672	31.633963
610.889	31.824179
611.106	31.938065
611.323	32.037764
611.540	32.219361
611.756	32.328874
611.973	32.418374
612.190	32.414561
612.407	32.787437
612.624	33.213660
612.841	33.683617
613.057	33.950047
613.274	34.128804
613.491	34.406930
613.708	34.820113
613.925	35.008309
614.141	35.116952
614.358	35.542310
614.575	36.051800
614.791	36.214511
615.008	36.264883
615.225	36.448105
615.441	36.780825
615.658	37.089147
615.874	37.208315
616.091	37.139464
616.307	37.175393
616.524	37.431454
616.740	37.485269
616.957	37.533774
617.173	37.762297
617.390	38.114438
617.606	38.207001
617.823	38.440004
618.039	38.718113
618.256	39.123612
618.472	39.589452
618.688	39.893051
618.905	39.987894
619.121	40.245466
619.337	40.482385
619.554	40.750109
619.770	40.990235
619.986	41.174431
620.202	41.238063
620.419	41.496957
620.635	41.760328
620.851	42.007664
621.067	42.335396
621.283	42.660802
621.499	42.925584
621.716	43.060143
621.932	43.219072
622.148	43.330031
622.364	43.505896
622.580	43.706775
622.796	43.738806
623.012	43.762952
623.228	43.818957
623.444	43.932575
623.660	44.183279
623.876	44.290101
624.092	44.573030
624.308	45.023174
624.524	45.365661
624.740	45.720234
624.955	46.084856
625.171	46.346411
625.387	46.426350
625.603	46.672951
625.819	46.893907
626.034	46.918977
626.250	47.099275
626.466	47.332323
626.682	47.218750
626.897	47.163285
627.113	47.097649
627.329	47.121826
627.544	47.316573
627.760	47.652761
627.976	47.801539
628.191	47.946589
628.407	48.360730
628.623	48.719453
628.838	48.931182
629.054	49.286680
629.269	49.705111
629.485	50.187916
629.700	50.659989
629.916	50.963513
630.131	51.106184
630.347	51.339677
630.562	51.533467
630.777	51.627244
630.993	51.807890
631.208	51.848881
631.424	51.906774
631.639	52.011519
631.854	52.028053
632.070	52.014176
632.285	52.107794
632.500	52.289354
632.715	52.429031
632.931	52.588467
633.146	52.779618
633.361	52.955286
633.576	53.377005
633.791	53.676867
634.007	53.887299
634.222	54.021483
634.437	54.017566
634.652	54.018001
634.867	54.095852
635.082	54.402562
635.297	54.801482
635.512	55.190717
635.727	55.502830
635.942	55.627017
636.157	55.810696
636.372	55.984664
636.587	56.166360
636.802	56.393176
637.017	56.571537
637.232	56.794027
637.447	56.966287
637.662	57.088117
637.876	57.156298
638.091	57.105874
638.306	57.107321
638.521	57.174293
638.736	57.477034
638.951	57.851975
639.165	58.214646
639.380	58.650001
639.595	58.847870
639.809	58.863976
640.024	58.976065
640.239	59.122642
640.453	59.375325
640.668	59.763444
640.883	60.119229
641.097	60.222306
641.312	60.290053
641.526	60.377320
641.741	60.389359
641.955	60.526389
642.170	60.511785
642.384	60.437858
642.599	60.346550
642.813	60.432182
643.028	60.555148
643.242	60.585940
643.457	60.647286
643.671	60.799783
643.885	60.931718
644.100	61.038221
644.314	61.255248
644.528	61.665999
644.743	61.854754
644.957	62.075113
645.171	62.313094
645.386	62.332777
645.600	62.389874
645.814	62.461217
646.028	62.636697
646.242	62.758154
646.457	62.779263
646.671	62.655469
646.885	62.756345
647.099	63.146364
647.313	63.337048
647.527	63.384192
647.741	63.660616
647.955	63.899166
648.169	64.125581
648.383	64.190258
648.597	64.335036
648.811	64.621918
649.025	64.878807
649.239	64.878915
649.453	64.908052
649.667	64.974344
649.881	65.297241
650.095	65.527710
650.309	65.605324
650.523	65.675572
650.737	65.887020
650.950	66.182814
651.164	66.364294
651.378	66.601491
651.592	66.657498
651.805	66.513176
652.019	66.672488
652.233	66.764370
652.447	66.736736
652.660	66.720904
652.874	66.842624
653.088	67.021195
653.301	66.906125
653.515	66.866226
653.728	66.778380
653.942	66.739035
654.156	66.824463
654.369	66.911217
654.583	66.884275
654.796	67.082931
655.010	67.520103
655.223	67.835235
655.437	67.804523
655.650	67.894522
655.863	67.981698
656.077	68.202250
656.290	68.531988
656.504	68.823613
656.717	68.880450
656.930	68.915399
657.144	68.920449
657.357	69.042899
657.570	69.228355
657.783	69.374336
657.997	69.432593
658.210	69.507527
658.423	69.549822
658.636	69.637707
658.849	69.684511
659.063	69.831770
659.276	70.063868
659.489	70.183727
659.702	70.232532
659.915	70.217638
660.128	70.214033
660.341	70.476438
660.554	70.840555
660.767	71.025432
660.980	71.324008
661.193	71.670465
661.406	72.041015
661.619	72.369655
661.832	72.509927
662.045	72.414002
662.258	72.350410
662.471	72.531063
662.684	72.512289
662.897	72.332597
663.110	72.139299
663.322	71.791022
663.535	71.370799
663.748	70.984147
663.961	70.732865
664.174	70.630057
664.386	70.550320
664.599	70.476886
664.812	70.313405
665.024	70.139933
665.237	70.085867
665.450	70.275591
665.662	70.422921
665.875	70.647050
666.088	70.801557
666.300	70.829717
666.513	70.933579
666.725	71.077242
666.938	71.134619
667.150	71.182944
667.363	71.416982
667.575	71.691776
667.788	71.800494
668.000	71.978228
668.213	72.116805
668.425	72.197565
668.638	72.185564
668.850	72.043974
669.062	71.919478
669.275	72.047408
669.487	72.319291
669.699	72.610434
669.912	72.715037
670.124	72.774850
670.336	72.765119
670.548	72.766473
670.761	72.638223
670.973	72.589017
671.185	72.741242
671.397	73.013421
671.609	73.021979
671.822	72.843290
672.034	72.657041
672.246	72.647161
672.458	72.879867
672.670	73.320323
672.882	73.572256
673.094	73.795536
673.306	73.951033
673.518	73.997655
673.730	74.048484
673.942	74.196171
674.154	74.398733
674.366	74.643755
674.578	74.858154
674.790	74.813867
675.002	74.621234
675.214	74.628265
675.425	74.738936
675.637	74.779189
675.849	74.762638
676.061	74.464967
676.273	74.178527
676.484	74.083527
676.696	73.966926
676.908	73.968937
677.120	74.147050
677.331	74.243210
677.543	74.259607
677.755	74.326771
677.966	74.467438
678.178	74.579098
678.389	74.951004
678.601	75.325732
678.813	75.589891
679.024	75.739192
679.236	75.658568
679.447	75.396825
679.659	75.029168
679.870	74.696159
680.082	74.438174
680.293	74.244843
680.505	74.082941
680.716	74.121050
680.927	74.095704
681.139	73.907085
681.350	73.870357
681.562	74.009701
681.773	74.275680
681.984	74.751971
682.196	75.077985
682.407	75.263228
682.618	75.295061
682.829	75.348030
683.041	75.365441
683.252	75.784148
683.463	76.235448
683.674	76.355497
683.885	76.492916
684.097	76.430461
684.308	76.246467
684.519	76.075124
684.730	75.898468
684.941	75.792398
685.152	75.825394
685.363	75.854733
685.574	75.535770
685.785	75.246865
685.996	75.167660
686.207	74.813103
686.418	74.721041
686.629	74.893160
686.840	75.131379
687.051	75.284153
687.262	75.389144
687.473	75.394977
687.684	75.209404
687.894	75.066343
688.105	75.118414
688.316	75.281556
688.527	75.570691
688.738	75.718306
688.948	75.661279
689.159	75.715755
689.370	75.862449
689.580	76.048865
689.791	76.215034
690.002	76.314954
690.212	76.370240
690.423	76.273259
690.634	76.092613
690.844	76.009543
691.055	76.059426
691.266	76.206970
691.476	76.263477
691.687	76.295380
691.897	76.431306
692.108	76.620216
692.318	76.750224
692.529	76.821329
692.739	76.894600
692.949	77.017660
693.160	77.178007
693.370	77.478484
693.581	77.874335
693.791	78.272246
694.001	78.514001
694.212	78.506696
694.422	78.295523
694.632	78.043759
694.843	77.787935
695.053	77.818010
695.263	77.845158
695.473	77.839742
695.683	77.582666
695.894	77.038728
696.104	76.581852
696.314	76.348750
696.524	76.309323
696.734	76.508791
696.944	76.991945
697.154	77.397351
697.365	77.553191
697.575	77.572383
697.785	77.622906
697.995	77.617426
698.205	77.672077
698.415	77.703478
698.625	77.605837
698.834	77.474990
699.044	77.348685
699.254	77.164669
699.464	77.076688
699.674	76.970672
699.884	76.775849
700.094	76.374635
700.304	76.042360
700.513	75.737463
700.723	75.411788
700.933	75.286804
701.143	75.358813
701.353	75.408552
701.562	75.378293
701.772	75.371721
701.982	75.534751
702.191	75.918939
702.401	76.547643
702.611	77.108303
702.820	77.390462
703.030	77.702420
703.239	78.001978
703.449	77.936627
703.659	77.762539
703.868	77.605881
704.078	77.447719
704.287	77.211832
704.497	76.790485
704.706	76.141684
704.916	75.635802
705.125	75.448286
705.334	75.307501
705.544	75.278645
705.753	75.357971
705.962	75.434730
706.172	75.457763
706.381	75.627510
706.590	75.861962
706.800	76.273690
707.009	76.651191
707.218	76.855152
707.428	76.924786
707.637	77.001218
707.846	77.008212
708.055	77.103528
708.264	77.249938
708.474	77.422201
708.683	77.373065
708.892	77.117849
709.101	76.818118
709.310	76.589702
709.519	76.355065
709.728	76.279181
709.937	76.261116
710.146	76.255384
710.355	76.311886
710.564	76.327506
710.773	76.295818
710.982	76.444463
711.191	76.556490
711.400	76.567741
711.609	76.607408
711.818	76.684209
712.027	76.813177
712.235	76.977262
712.444	77.094831
712.653	77.154995
712.862	77.151894
713.071	77.197944
713.279	77.052882
713.488	76.869431
713.697	76.692234
713.906	76.579703
714.114	76.554754
714.323	76.501886
714.532	76.223451
714.740	75.897763
714.949	75.769556
715.157	75.836000
715.366	75.851965
715.575	75.946523
715.783	75.936940
715.992	75.681775
716.200	75.335472
716.409	75.103806
716.617	74.888517
716.826	74.804296
717.034	74.777969
717.242	74.496989
717.451	74.095616
717.659	73.805538
717.868	73.522003
718.076	73.565664
718.284	73.888412
718.493	74.230002
718.701	74.465182
718.909	74.571525
719.118	74.586227
719.326	74.543285
719.534	74.510009
719.742	74.587353
719.951	74.850076
720.159	75.041524
720.367	74.975555
720.575	74.669691
720.783	74.514624
720.991	74.669802
721.199	74.903604
721.408	75.074466
721.616	75.175307
721.824	75.363569
722.032	75.536400
722.240	75.375580
722.448	75.245302
722.656	75.233771
722.864	75.436075
723.072	75.631444
723.280	75.443704
723.487	75.223847
723.695	75.093070
723.903	75.167846
724.111	75.249617
724.319	75.251051
724.527	75.250684
724.735	75.392839
724.942	75.461965
725.150	75.367332
725.358	75.160791
725.566	75.095232
725.773	75.146088
725.981	75.104715
726.189	74.888808
726.396	74.533217
726.604	74.299924
726.812	74.382798
727.019	74.271811
727.227	73.997651
727.435	73.994650
727.642	73.968296
727.850	73.814665
728.057	73.756025
728.265	73.623390
728.472	73.513562
728.680	73.598853
728.887	73.557163
729.095	73.326246
729.302	73.150492
729.509	73.122033
729.717	73.062086
729.924	73.019755
730.132	73.166558
730.339	73.084580
730.546	73.099880
730.753	73.135231
730.961	73.003435
731.168	72.777141
731.375	72.439353
731.583	72.129833
731.790	72.100202
731.997	72.114762
732.204	72.184366
732.411	72.225269
732.618	72.143883
732.826	71.961894
733.033	71.715390
733.240	71.453883
733.447	71.381997
733.654	71.670839
733.861	72.053783
734.068	72.099334
734.275	72.015595
734.482	71.924815
734.689	71.796185
734.896	71.893393
735.103	72.164837
735.310	72.554337
735.517	72.937837
735.724	73.168625
735.931	73.044482
736.137	72.768996
736.344	72.603617
736.551	72.593104
736.758	72.667703
736.965	72.703356
737.171	72.706115
737.378	72.551777
737.585	72.127582
737.792	71.749158
737.998	71.439419
738.205	71.263210
738.412	71.170199
738.618	71.193572
738.825	71.071139
739.032	70.725948
739.238	70.426701
739.445	70.095622
739.651	69.853361
739.858	69.904256
740.064	70.037911
740.271	70.221468
740.477	70.297603
740.684	70.271220
740.890	70.142621
741.097	69.897791
741.303	69.761975
741.510	69.580977
741.716	69.370276
741.922	69.293249
742.129	69.280552
742.335	69.286200
742.541	69.114128
742.748	68.869001
742.954	68.636239
743.160	68.499375
743.366	68.580568
743.573	68.534358
743.779	68.448785
743.985	68.358391
744.191	68.259985
744.397	67.958530
744.604	67.469423
744.810	67.133858
745.016	67.046904
745.222	67.023725
745.428	66.768913
745.634	66.380043
745.840	66.140124
746.046	65.851727
746.252	65.718530
746.458	65.581519
746.664	65.722421
746.870	66.039294
747.076	66.300460
747.282	66.396433
747.488	66.365787
747.694	66.266771
747.900	66.310788
748.105	66.415528
748.311	66.719028
748.517	66.864515
748.723	66.794246
748.929	66.422760
749.134	65.884074
749.340	65.347464
749.546	64.916904
749.752	64.539674
749.957	64.516132
750.163	64.434891
750.369	64.158492
750.574	63.833467
750.780	63.568162
750.985	63.609790
751.191	63.668353
751.397	63.673538
751.602	63.872496
751.808	64.035768
752.013	64.130928
752.219	64.071216
752.424	63.995390
752.630	64.201020
752.835	64.366478
753.041	64.406687
753.246	64.089168
753.451	63.744675
753.657	63.526308
753.862	63.209187
754.067	62.769435
754.273	62.303468
754.478	61.971748
754.683	61.919740
754.889	61.745515
755.094	61.470611
755.299	61.132650
755.504	60.905239
755.710	60.810609
755.915	60.686184
756.120	60.390813
756.325	60.195017
756.530	60.240435
756.735	60.291260
756.940	60.129961
757.146	59.940970
757.351	59.777260
757.556	59.662231
757.761	59.516161
757.966	59.281650
758.171	59.092836
758.376	59.025348
758.581	58.971549
758.786	58.929392
758.990	58.717893
759.195	58.436082
759.400	58.090353
759.605	57.761692
759.810	57.407705
760.015	57.092710
760.220	57.189551
760.424	57.355359
760.629	57.295812
760.834	57.269298
761.039	57.174175
761.244	57.179533
761.448	57.234694
761.653	57.217091
761.858	57.144418
762.062	57.157397
762.267	57.238528
762.472	56.755692
762.676	56.071953
762.881	55.620620
763.085	55.163224
763.290	54.629990
763.494	54.020051
763.699	53.390704
763.903	52.953022
764.108	52.641404
764.312	52.334683
764.517	51.905884
764.721	51.715059
764.926	51.765639
765.130	51.777093
765.335	51.617221
765.539	51.620735
765.743	51.706401
765.948	51.723319
766.152	51.594110
766.356	51.290011
766.560	51.012778
766.765	50.858764
766.969	50.620611
767.173	50.388121
767.377	50.186068
767.582	50.111752
767.786	50.017317
767.990	49.875401
768.194	49.703343
768.398	49.509761
768.602	49.463466
768.806	49.323024
769.010	49.118521
769.215	49.168767
769.419	49.016588
769.623	48.785024
769.827	48.514551
770.031	48.146655
770.234	47.728923
770.438	47.333882
770.642	47.092961
770.846	46.735994
771.050	46.351559
771.254	46.163449
771.458	45.792597
771.662	45.515784
771.866	45.242245
772.069	45.004926
772.273	44.770994
772.477	44.483085
772.681	44.147132
772.885	43.744586
773.088	43.362809
773.292	43.101347
773.496	42.751070
773.699	42.383547
773.903	42.076790
774.107	41.731303
774.310	41.236060
774.514	40.805551
774.717	40.468957
774.921	40.311225
775.124	39.965721
775.328	39.588220
775.531	39.246280
775.735	38.956544
775.938	38.668633
776.142	38.247859
776.345	37.864694
776.549	37.650663
776.752	37.371426
776.956	37.076864
777.159	36.620589
777.362	36.331845
777.566	36.069155
777.769	35.843325
777.972	35.675018
778.176	35.360097
778.379	35.051874
778.582	34.817035
778.785	34.424038
778.989	34.112056
779.192	33.842671
779.395	33.603171
779.598	33.368210
779.801	33.166541
780.004	32.926098
780.207	32.429875
780.411	32.037515
780.614	31.676725
780.817	31.292346
781.020	30.942952
781.223	30.620290
781.426	30.303692
781.629	30.124644
781.832	29.853246
782.035	29.488408
782.238	29.137404
782.440	28.903100
782.643	28.648352
782.846	28.394097
783.049	28.049201
783.252	27.822119
783.455	27.606701
783.658	27.277376
783.860	26.749598
784.063	26.301651
784.266	25.881695
784.469	25.467036
784.671	25.125605
784.874	24.760568
785.077	24.370941
785.279	24.020797
785.482	23.769578
785.685	23.563148
785.887	23.350432
786.090	23.198433
786.293	22.977043
786.495	22.792091
786.698	22.540306
786.900	22.207755
787.103	21.977772
787.305	21.742688
787.508	21.520790
787.710	21.262697
787.913	20.781843
788.115	20.323029
788.317	19.930053
788.520	19.553509
788.722	19.078343
788.924	18.653616
789.127	18.324114
789.329	17.817573
789.531	17.357462
789.734	16.970586
789.936	16.516677
790.138	16.186688
790.340	15.959561
790.543	15.648961
790.745	15.360267
790.947	15.202470
791.149	14.961087
791.351	14.707474
791.553	14.578821
791.756	14.507658
791.958	14.460668
792.160	14.279769
792.362	13.994743
792.564	13.801108
792.766	13.669037
792.968	13.543181
793.170	13.400507
793.372	13.213407
793.574	12.902975
793.776	12.621182
793.978	12.332749
794.180	12.035667
794.381	11.866790
794.583	11.741428
794.785	11.541691
794.987	11.341872
795.189	11.054990
795.391	10.785558
795.592	10.721438
795.794	10.683708
795.996	10.566314
796.198	10.542947
796.399	10.327599
796.601	10.158557
796.803	10.017068
797.004	9.795749
797.206	9.561823
797.407	9.467358
797.609	9.336998
797.811	9.155813
798.012	9.085283
798.214	8.984301
798.415	8.833839
798.617	8.828339
798.818	8.788001
799.020	8.754905
799.221	8.827388
799.423	8.919859
799.624	8.973912
799.826	9.039022
800.027	9.006666
800.228	8.956979
800.430	8.959658
800.631	8.875980
800.832	8.788820
801.034	8.662824
801.235	8.536771
801.436	8.458785
801.637	8.292219
801.839	8.087629
802.040	8.049196
802.241	8.150683
802.442	8.069014
802.643	8.060745
802.844	8.089920
803.046	8.158644
803.247	8.244376
803.448	8.320274
803.649	8.246274
803.850	8.298301
804.051	8.460028
804.252	8.615027
804.453	8.594145
804.654	8.721284
804.855	8.849002
805.056	8.991426
805.257	9.086163
805.458	9.217722
805.659	9.380992
805.859	9.603370
806.060	9.752022
806.261	9.927125
806.462	9.936433
806.663	9.959683
806.864	10.085544
807.064	10.249868
807.265	10.362872
807.466	10.447058
807.667	10.507881
807.867	10.514588
808.068	10.551694
808.269	10.652749
808.469	10.764776
808.670	10.878419
808.870	11.140662
809.071	11.249289
809.272	11.240979
809.472	11.289410
809.673	11.504970
809.873	11.701661
810.074	11.996272
810.274	12.189275
810.475	12.422264
810.675	12.529765
810.876	12.730719
811.076	13.068998
811.276	13.239420
811.477	13.520649
811.677	13.809974
811.878	13.960779
812.078	14.147938
812.278	14.303560
812.479	14.553877
812.679	14.762284
812.879	14.974989
813.079	15.219184
813.280	15.192687
813.480	15.401270
813.680	15.619328
813.880	15.767427
814.080	15.825036
814.280	15.901629
814.480	15.998914
814.681	16.182810
814.881	16.390685
815.081	16.617123
815.281	16.807082
815.481	17.094044
815.681	17.425225
815.881	17.712762
816.081	17.979552
816.281	18.379550
816.481	18.798704
816.681	19.095816
816.880	19.347812
817.080	19.565477
817.280	19.855437
817.480	20.104916
817.680	20.404536
817.880	20.759591
818.080	21.031330
818.279	21.159802
818.479	21.264154
818.679	21.415711
818.879	21.694109
819.078	21.911698
819.278	22.250270
819.478	22.538257
819.677	22.906313
819.877	23.174775
820.077	23.445523
820.276	23.790254
820.476	24.283352
820.675	24.834055
820.875	25.200982
821.074	25.507060
821.274	25.830216
821.473	26.105392
821.673	26.303790
821.872	26.492185
822.072	26.792553
822.271	26.838474
822.471	26.952807
822.670	27.063489
822.869	27.070864
823.069	27.163794
823.268	27.334066
823.467	27.520779
823.667	27.707817
823.866	28.004335
824.065	28.365882
824.265	28.718391
824.464	29.154705
824.663	29.526205
824.862	29.920828
825.061	30.338952
825.261	30.840481
825.460	31.301763
825.659	31.690260
825.858	31.802873
826.057	31.915526
826.256	32.001399
826.455	32.106690
826.654	32.185659
826.853	32.328006
827.052	32.540003
827.251	32.803901
827.450	32.965122
