Date	2025年07月03日木曜日 09時57分03秒
Spectrometers	SR401765
ダーク	使用
リファレンス	使用
積分時間[msec]	300
平均回数	1
ｽﾑｰｼﾞﾝｸﾞ	5
Electrical Dark	USE
ピクセル数	3648
計測モード	反射率
保存開始波長[nm]	598.495
保存終了波長[nm]	1274.802
保存ﾋﾟｯﾁ波長[nm]	全波長

>>>>>>>>>> Data Start <<<<<<<<<<<<
598.495	27485.199661
598.713	27485.199661
598.931	27485.199661
599.148	27485.199661
599.366	0.000000
599.584	0.000000
599.802	3965.653683
600.020	120.467613
600.238	-45.864446
600.455	90.037898
600.673	73.975923
600.891	84.010137
601.109	87.145330
601.326	86.264632
601.544	83.958720
601.762	83.152497
601.979	82.806204
602.197	82.701192
602.415	82.975908
602.632	82.874168
602.850	82.725037
603.067	82.914384
603.285	83.097714
603.502	82.553440
603.720	82.091619
603.938	82.255956
604.155	82.466020
604.372	82.574720
604.590	82.731362
604.807	82.760237
605.025	82.995921
605.242	83.384145
605.460	83.461327
605.677	83.455258
605.894	83.778645
606.112	84.223087
606.329	84.739735
606.546	85.276146
606.764	85.606581
606.981	85.805369
607.198	85.861646
607.415	85.938985
607.633	86.131334
607.850	86.118372
608.067	85.955256
608.284	85.836618
608.501	85.580729
608.718	85.203784
608.935	84.719614
609.153	84.506733
609.370	84.482108
609.587	84.476075
609.804	84.460163
610.021	84.326181
610.238	84.543481
610.455	84.861456
610.672	84.977379
610.889	85.326498
611.106	85.481123
611.323	85.318741
611.540	85.415131
611.756	85.659524
611.973	85.753079
612.190	85.691222
612.407	85.680793
612.624	85.670537
612.841	85.923465
613.057	86.259498
613.274	86.287158
613.491	86.443398
613.708	87.034819
613.925	87.204594
614.141	86.860554
614.358	86.765015
614.575	86.813290
614.791	86.751519
615.008	86.651065
615.225	86.193533
615.441	85.584197
615.658	85.183407
615.874	85.033784
616.091	85.016236
616.307	84.905147
616.524	84.844654
616.740	84.710334
616.957	84.698020
617.173	84.645753
617.390	84.656244
617.606	84.724637
617.823	85.057741
618.039	85.381710
618.256	85.389601
618.472	85.204615
618.688	85.289674
618.905	85.560343
619.121	85.766615
619.337	85.955130
619.554	86.173521
619.770	86.059180
619.986	85.998579
620.202	86.113777
620.419	86.275380
620.635	86.528952
620.851	86.654770
621.067	86.629870
621.283	86.520581
621.499	86.578760
621.716	86.406008
621.932	86.108496
622.148	85.942524
622.364	85.715661
622.580	85.409976
622.796	85.144899
623.012	84.921705
623.228	84.803683
623.444	84.739216
623.660	84.770281
623.876	84.731661
624.092	84.763219
624.308	84.971419
624.524	85.026193
624.740	85.087881
624.955	84.974111
625.171	84.700983
625.387	84.383340
625.603	84.251308
625.819	84.184734
626.034	84.095443
626.250	83.915454
626.466	83.840656
626.682	83.635871
626.897	83.519337
627.113	83.594659
627.329	83.768002
627.544	83.864956
627.760	83.893022
627.976	83.766676
628.191	83.689267
628.407	83.873541
628.623	84.240260
628.838	84.486198
629.054	84.604491
629.269	84.871402
629.485	84.970416
629.700	85.236488
629.916	85.601640
630.131	85.870746
630.347	86.053808
630.562	85.996895
630.777	85.684037
630.993	85.268741
631.208	84.828745
631.424	84.733556
631.639	84.707264
631.854	84.602215
632.070	84.533759
632.285	84.659869
632.500	84.820589
632.715	84.850158
632.931	84.876577
633.146	84.892246
633.361	84.868744
633.576	85.023149
633.791	84.935591
634.007	84.749715
634.222	84.960427
634.437	84.882079
634.652	84.465655
634.867	84.223732
635.082	84.369127
635.297	84.580897
635.512	84.868465
635.727	85.321653
635.942	85.692505
636.157	86.117562
636.372	86.287217
636.587	85.974133
636.802	85.728353
637.017	85.677867
637.232	85.699605
637.447	85.780933
637.662	85.862823
637.876	85.712093
638.091	85.277841
638.306	84.810249
638.521	84.353347
638.736	84.251001
638.951	84.326556
639.165	84.355442
639.380	84.419212
639.595	84.339677
639.809	84.062548
640.024	83.892246
640.239	84.118272
640.453	84.553362
640.668	84.854832
640.883	85.122449
641.097	85.186585
641.312	85.205135
641.526	85.194771
641.741	85.312183
641.955	85.365979
642.170	85.341028
642.384	85.530459
642.599	85.619590
642.813	85.688389
643.028	86.060809
643.242	86.457808
643.457	86.778319
643.671	86.957768
643.885	86.955487
644.100	86.823981
644.314	86.800620
644.528	86.715387
644.743	86.341129
644.957	85.988550
645.171	85.571359
645.386	84.814813
645.600	84.259720
645.814	83.979516
646.028	83.846865
646.242	83.880067
646.457	83.696745
646.671	83.494013
646.885	83.737653
647.099	84.164106
647.313	84.356869
647.527	84.415734
647.741	84.780079
647.955	85.239347
648.169	85.712238
648.383	86.227192
648.597	86.813906
648.811	87.449482
649.025	87.868600
649.239	87.828221
649.453	87.678408
649.667	87.737952
649.881	88.208890
650.095	88.510278
650.309	88.243235
650.523	87.722996
650.737	87.395572
650.950	87.159591
651.164	87.156788
651.378	87.296703
651.592	87.280269
651.805	87.148363
652.019	87.271879
652.233	87.322328
652.447	87.140144
652.660	87.168966
652.874	87.422541
653.088	87.515871
653.301	87.651118
653.515	87.649739
653.728	87.502143
653.942	87.408309
654.156	87.187948
654.369	86.611780
654.583	85.889234
654.796	85.589643
655.010	85.399393
655.223	85.147317
655.437	84.947855
655.650	84.801972
655.863	84.624795
656.077	84.562519
656.290	84.776179
656.504	85.139221
656.717	85.275978
656.930	85.270987
657.144	85.064196
657.357	85.146378
657.570	85.382435
657.783	85.393126
657.997	85.157150
658.210	84.923804
658.423	84.690828
658.636	84.263876
658.849	83.961443
659.063	84.078158
659.276	84.462026
659.489	84.948917
659.702	85.126743
659.915	84.948926
660.128	84.548670
660.341	84.098571
660.554	83.910043
660.767	83.961826
660.980	84.243070
661.193	84.363549
661.406	84.346235
661.619	84.287568
661.832	84.102982
662.045	84.040972
662.258	84.160045
662.471	84.501026
662.684	84.733511
662.897	84.689418
663.110	84.404353
663.322	83.945906
663.535	83.478640
663.748	83.050687
663.961	82.751713
664.174	82.610885
664.386	82.410561
664.599	82.306127
664.812	82.329887
665.024	82.421833
665.237	82.547282
665.450	82.644710
665.662	82.732850
665.875	82.967842
666.088	83.267009
666.300	83.271157
666.513	83.078568
666.725	82.962882
666.938	82.860957
667.150	82.614438
667.363	82.618208
667.575	82.784498
667.788	82.931182
668.000	83.055891
668.213	83.285873
668.425	83.549555
668.638	83.676301
668.850	83.596697
669.062	83.331160
669.275	83.271173
669.487	83.533364
669.699	83.768592
669.912	83.895899
670.124	83.961934
670.336	83.879740
670.548	83.733420
670.761	83.437286
670.973	83.384089
671.185	83.692667
671.397	84.038465
671.609	84.028040
671.822	83.683890
672.034	83.289955
672.246	82.985914
672.458	82.917263
672.670	83.245058
672.882	83.313041
673.094	83.023080
673.306	82.751247
673.518	82.569999
673.730	82.482979
673.942	82.397883
674.154	82.337318
674.366	82.374390
674.578	82.380818
674.790	82.311956
675.002	82.044801
675.214	81.730841
675.425	81.499969
675.637	81.275600
675.849	80.943630
676.061	80.349606
676.273	79.751959
676.484	79.636954
676.696	79.652992
676.908	79.679997
677.120	79.661989
677.331	79.559087
677.543	79.400171
677.755	79.359014
677.966	79.500785
678.178	79.601353
678.389	79.872346
678.601	80.259428
678.813	80.241223
679.024	79.797717
679.236	79.230671
679.447	78.901059
679.659	78.616833
679.870	78.464735
680.082	78.379530
680.293	78.116292
680.505	78.189902
680.716	78.511936
680.927	78.605417
681.139	78.520246
681.350	78.582611
681.562	78.714717
681.773	78.704418
681.984	78.582900
682.196	78.451601
682.407	78.413713
682.618	78.229562
682.829	77.756098
683.041	77.201126
683.252	76.857076
683.463	76.806682
683.674	76.886109
683.885	76.912963
684.097	76.527657
684.308	76.264878
684.519	76.062740
684.730	75.801085
684.941	75.632194
685.152	75.679765
685.363	75.991715
685.574	76.233050
685.785	76.178148
685.996	75.904315
686.207	75.521569
686.418	75.493847
686.629	75.540792
686.840	75.631539
687.051	75.786079
687.262	76.028575
687.473	75.974871
687.684	75.423842
687.894	74.992673
688.105	74.862403
688.316	74.931424
688.527	75.053940
688.738	74.974137
688.948	74.786245
689.159	74.697301
689.370	74.573406
689.580	74.592279
689.791	74.593925
690.002	74.695734
690.212	74.889307
690.423	74.989287
690.634	74.952032
690.844	75.017022
691.055	75.324601
691.266	75.644698
691.476	75.654252
691.687	75.618682
691.897	75.332718
692.108	75.072460
692.318	74.878223
692.529	74.407166
692.739	73.963118
692.949	73.684870
693.160	73.521543
693.370	73.479182
693.581	73.536093
693.791	73.747481
694.001	73.616476
694.212	73.503986
694.422	73.552104
694.632	73.427495
694.843	73.212736
695.053	73.181499
695.263	73.205131
695.473	72.980429
695.683	72.477504
695.894	71.956808
696.104	71.653934
696.314	71.730503
696.524	71.806724
696.734	71.702253
696.944	71.578799
697.154	71.626958
697.365	71.560339
697.575	71.185844
697.785	70.894247
697.995	70.596419
698.205	70.265270
698.415	69.892546
698.625	69.560442
698.834	69.160127
699.044	68.668170
699.254	68.314897
699.464	67.959488
699.674	67.574328
699.884	67.344543
700.094	67.070540
700.304	66.803503
700.513	66.594691
700.723	66.187159
700.933	65.839169
701.143	65.750206
701.353	65.648726
701.562	65.456254
701.772	65.397684
701.982	65.570605
702.191	65.772699
702.401	65.982238
702.611	66.219710
702.820	66.224109
703.030	66.413614
703.239	66.650726
703.449	66.706658
703.659	66.899687
703.868	67.179141
704.078	67.190185
704.287	66.832428
704.497	66.463542
704.706	66.102788
704.916	65.864254
705.125	65.862356
705.334	65.598264
705.544	65.149377
705.753	64.777549
705.962	64.514153
706.172	64.110494
706.381	63.880332
706.590	63.788796
706.800	63.685339
707.009	63.632021
707.218	63.497272
707.428	63.286643
707.637	63.242220
707.846	63.213607
708.055	63.369861
708.264	63.402335
708.474	63.528159
708.683	63.644258
708.892	63.676413
709.101	63.699906
709.310	63.695514
709.519	63.560692
709.728	63.352650
709.937	63.176761
710.146	62.892440
710.355	62.314043
710.564	61.763480
710.773	61.327041
710.982	60.994248
711.191	60.678866
711.400	60.429166
711.609	60.210791
711.818	60.153100
712.027	60.172165
712.235	60.105347
712.444	60.108027
712.653	60.036056
712.862	59.832623
713.071	59.596454
713.279	59.356846
713.488	59.118478
713.697	58.810400
713.906	58.559482
714.114	58.320977
714.323	58.137504
714.532	57.991527
714.740	57.958611
714.949	58.167958
715.157	58.537652
715.366	58.687324
715.575	58.634705
715.783	58.506310
715.992	58.256068
716.200	57.945874
716.409	57.652076
716.617	57.391383
716.826	57.186856
717.034	56.927679
717.242	56.614754
717.451	56.164240
717.659	55.812873
717.868	55.693985
718.076	55.895529
718.284	56.196222
718.493	56.391450
718.701	56.518868
718.909	56.613857
719.118	56.731541
719.326	56.816373
719.534	56.887171
719.742	57.018081
719.951	57.274351
720.159	57.446786
720.367	57.495327
720.575	57.538315
720.783	57.799526
720.991	58.086147
721.199	58.122602
721.408	57.886733
721.616	57.491978
721.824	57.158018
722.032	57.076028
722.240	56.877343
722.448	56.616289
722.656	56.289504
722.864	55.928556
723.072	55.436884
723.280	55.019406
723.487	54.954041
723.695	55.121034
723.903	55.510699
724.111	55.842199
724.319	55.830054
724.527	55.946029
724.735	56.129289
724.942	56.297888
725.150	56.525553
725.358	56.701540
725.566	56.777165
725.773	56.720887
725.981	56.617564
726.189	56.507450
726.396	56.287468
726.604	56.056266
726.812	55.855168
727.019	55.646253
727.227	55.192461
727.435	54.823011
727.642	54.698015
727.850	54.697096
728.057	54.622163
728.265	54.493621
728.472	54.269731
728.680	54.041040
728.887	54.026710
729.095	54.099300
729.302	54.230983
729.509	54.566447
729.717	54.816480
729.924	54.822385
730.132	54.739274
730.339	54.689860
730.546	54.674768
730.753	54.805031
730.961	55.133335
731.168	55.552646
731.375	55.621642
731.583	55.507411
731.790	55.442137
731.997	55.357338
732.204	55.437185
732.411	55.667222
732.618	56.040384
732.826	56.415233
733.033	56.635818
733.240	56.656401
733.447	56.359669
733.654	56.356513
733.861	56.464946
734.068	56.630673
734.275	57.056829
734.482	57.373233
734.689	57.427373
734.896	57.211003
735.103	57.080525
735.310	57.025481
735.517	57.072582
735.724	57.398183
735.931	57.612168
736.137	57.688294
736.344	57.612924
736.551	57.320891
736.758	57.030827
736.965	56.754201
737.171	56.598141
737.378	56.404930
737.585	56.371829
737.792	56.461764
737.998	56.461812
738.205	56.518753
738.412	56.759773
738.618	56.968702
738.825	57.042464
739.032	57.247774
739.238	57.454198
739.445	57.604562
739.651	57.696259
739.858	57.817730
740.064	57.890507
740.271	58.034535
740.477	58.058224
740.684	57.859461
740.890	57.846840
741.097	57.989386
741.303	58.059254
741.510	58.286420
741.716	58.685290
741.922	58.978937
742.129	59.171452
742.335	59.274818
742.541	59.160361
742.748	59.140516
742.954	59.296320
743.160	59.510205
743.366	59.682437
743.573	59.656908
743.779	59.705609
743.985	59.748430
744.191	59.820000
744.397	59.794088
744.604	59.825483
744.810	60.102064
745.016	60.333178
745.222	60.478918
745.428	60.216783
745.634	59.961886
745.840	59.900153
746.046	59.637034
746.252	59.404758
746.458	59.303719
746.664	59.310369
746.870	59.235603
747.076	59.193835
747.282	59.205305
747.488	59.272966
747.694	59.427580
747.900	59.548624
748.105	59.654723
748.311	59.766718
748.517	59.812852
748.723	59.827216
748.929	59.573184
749.134	59.544686
749.340	59.552704
749.546	59.735947
749.752	59.838153
749.957	60.124888
750.163	60.549476
750.369	60.827478
750.574	61.037425
750.780	61.233028
750.985	61.433467
751.191	61.987732
751.397	62.379510
751.602	62.587798
751.808	62.503562
752.013	62.405274
752.219	62.305739
752.424	62.148012
752.630	62.418713
752.835	63.140923
753.041	63.710755
753.246	64.069761
753.451	64.208030
753.657	64.141263
753.862	64.106641
754.067	64.006255
754.273	63.938876
754.478	64.051248
754.683	64.406526
754.889	64.754435
755.094	64.894388
755.299	64.997366
755.504	65.175771
755.710	65.437023
755.915	65.961854
756.120	66.135279
756.325	66.087894
756.530	65.979716
756.735	65.691573
756.940	65.227922
757.146	64.631541
757.351	64.162923
757.556	63.954773
757.761	63.797590
757.966	63.549417
758.171	63.203167
758.376	63.161574
758.581	63.482065
758.786	64.114643
758.990	65.037177
759.195	65.973177
759.400	66.673939
759.605	66.844662
759.810	66.802134
760.015	66.662685
760.220	66.790721
760.424	66.995537
760.629	66.860170
760.834	66.757778
761.039	66.683388
761.244	66.485235
761.448	66.201847
761.653	65.869186
761.858	65.740743
762.062	65.708326
762.267	66.014354
762.472	66.223131
762.676	66.273075
762.881	66.523537
763.085	66.761352
763.290	66.928845
763.494	66.900208
763.699	66.772828
763.903	66.724178
764.108	66.772095
764.312	66.999837
764.517	67.210661
764.721	67.454685
764.926	68.021733
765.130	68.429760
765.335	68.395390
765.539	68.343511
765.743	68.426557
765.948	68.535894
766.152	68.624195
766.356	68.872628
766.560	68.913607
766.765	68.533710
766.969	68.304074
767.173	68.151854
767.377	68.228526
767.582	68.698489
767.786	69.161638
767.990	69.440733
768.194	69.741061
768.398	70.156671
768.602	70.458463
768.806	70.949349
769.010	71.759446
769.215	72.206913
769.419	72.255684
769.623	72.330431
769.827	72.397936
770.031	72.209360
770.234	71.921304
770.438	71.673230
770.642	71.710629
770.846	72.021355
771.050	72.362970
771.254	72.670869
771.458	72.839366
771.662	72.907485
771.866	72.991815
772.069	73.216301
772.273	73.548229
772.477	73.848781
772.681	74.093564
772.885	74.065871
773.088	73.628719
773.292	73.129596
773.496	72.869763
773.699	72.972238
773.903	73.161058
774.107	73.230775
774.310	73.153536
774.514	72.943897
774.717	72.874253
774.921	72.668956
775.124	72.334201
775.328	72.279441
775.531	72.206141
775.735	71.822762
775.938	71.354410
776.142	71.040659
776.345	70.826396
776.549	70.738508
776.752	70.780066
776.956	70.852524
777.159	71.070707
777.362	71.292825
777.566	71.293187
777.769	71.270781
777.972	71.237356
778.176	71.118158
778.379	71.012700
778.582	71.132677
778.785	71.090938
778.989	70.980138
779.192	70.984222
779.395	71.058614
779.598	71.138016
779.801	71.239560
780.004	71.333758
780.207	71.483220
780.411	71.725093
780.614	71.909209
780.817	71.766598
781.020	71.615811
781.223	71.671777
781.426	71.684097
781.629	71.728871
781.832	71.829600
782.035	72.003160
782.238	72.160441
782.440	72.360985
782.643	72.521531
782.846	72.593286
783.049	72.944243
783.252	73.583730
783.455	74.091828
783.658	74.216367
783.860	74.116082
784.063	74.088263
784.266	74.327037
784.469	74.725252
784.671	75.095939
784.874	75.280687
785.077	75.524251
785.279	75.779377
785.482	75.855415
785.685	75.865046
785.887	76.163562
786.090	76.714659
786.293	77.457588
786.495	77.782980
786.698	77.769337
786.900	77.702165
787.103	77.604479
787.305	77.609611
787.508	77.598735
787.710	77.421010
787.913	77.320228
788.115	77.144999
788.317	76.653646
788.520	75.885643
788.722	75.254111
788.924	74.863433
789.127	74.593880
789.329	74.594788
789.531	74.326306
789.734	74.004308
789.936	73.832623
790.138	73.626761
790.340	73.730627
790.543	74.190581
790.745	74.789331
790.947	75.173590
791.149	75.454777
791.351	75.729799
791.553	75.986640
791.756	76.458376
791.958	76.981673
792.160	77.472022
792.362	77.678256
792.564	77.777601
792.766	77.893707
792.968	78.022829
793.170	78.279701
793.372	78.526195
793.574	78.661886
793.776	78.550213
793.978	78.349956
794.180	77.967320
794.381	77.614661
794.583	77.577762
794.785	77.482223
794.987	77.225272
795.189	76.861800
795.391	76.748889
795.592	76.781311
795.794	77.080704
795.996	77.784752
796.198	78.372850
796.399	78.691219
796.601	78.795511
796.803	78.629389
797.004	78.223999
797.206	78.068816
797.407	78.199039
797.609	77.962307
797.811	77.548797
798.012	77.018521
798.214	76.338775
798.415	75.749607
798.617	75.526681
798.818	75.742789
799.020	76.504688
799.221	77.621620
799.423	78.342356
799.624	78.791255
799.826	79.560091
800.027	80.211488
800.228	80.456360
800.430	80.644921
800.631	80.963870
800.832	81.003599
801.034	80.423610
801.235	79.487480
801.436	78.543935
801.637	77.865573
801.839	77.242513
802.040	76.381140
802.241	75.586133
802.442	75.155497
802.643	74.766209
802.844	74.338995
803.046	74.348450
803.247	74.616249
803.448	74.895054
803.649	74.981954
803.850	75.225369
804.051	75.348558
804.252	75.555348
804.453	75.846061
804.654	76.030757
804.855	76.192060
805.056	76.449144
805.257	76.541202
805.458	76.685995
805.659	77.070902
805.859	77.623368
806.060	77.880224
806.261	78.308919
806.462	78.662459
806.663	78.781201
806.864	78.980205
807.064	79.059751
807.265	78.980248
807.466	79.002143
807.667	79.146758
807.867	79.030376
808.068	78.927305
808.269	78.850418
808.469	78.638560
808.670	78.640949
808.870	79.033565
809.071	79.451435
809.272	79.896516
809.472	80.337767
809.673	80.791385
809.873	81.170354
810.074	81.570942
810.274	81.705586
810.475	81.823602
810.675	82.007678
810.876	81.982168
811.076	81.929787
811.276	81.769813
811.477	81.337240
811.677	80.605837
811.878	79.718910
812.078	79.214029
812.278	79.005104
812.479	78.978023
812.679	79.273671
812.879	79.721164
813.079	80.299142
813.280	80.656684
813.480	80.642344
813.680	80.755438
813.880	81.225361
814.080	81.514460
814.280	81.446880
814.480	81.251257
814.681	81.102183
814.881	80.627509
815.081	79.916049
815.281	79.130102
815.481	78.602322
815.681	78.417112
815.881	78.181890
816.081	77.953690
816.281	78.074618
816.481	78.557996
816.681	79.029323
816.880	79.404604
817.080	79.642338
817.280	79.909309
817.480	80.059751
817.680	80.175968
817.880	80.424601
818.080	80.577083
818.279	80.454680
818.479	80.189168
818.679	79.739860
818.879	79.464570
819.078	79.299072
819.278	79.389852
819.478	79.353435
819.677	79.565323
819.877	79.784076
820.077	79.835712
820.276	80.281579
820.476	81.236725
820.675	82.136936
820.875	82.613325
821.074	82.630638
821.274	82.654429
821.473	82.549281
821.673	82.628201
821.872	82.660962
822.072	82.668500
822.271	82.924071
822.471	83.163731
822.670	82.845219
822.869	82.438939
823.069	81.942592
823.268	81.555926
823.467	81.362165
823.667	81.363098
823.866	81.668732
824.065	82.280327
824.265	82.974153
824.464	83.387031
824.663	83.386419
824.862	83.368042
825.061	83.457970
825.261	83.908702
825.460	84.634833
825.659	85.202574
825.858	85.451496
826.057	85.281691
826.256	84.791792
826.455	84.127304
826.654	83.479267
826.853	83.238556
827.052	83.590513
