Date	2025年07月03日木曜日 09時56分28秒
Spectrometers	SR401765
ダーク	使用
リファレンス	使用
積分時間[msec]	300
平均回数	1
ｽﾑｰｼﾞﾝｸﾞ	5
Electrical Dark	USE
ピクセル数	3648
計測モード	反射率
保存開始波長[nm]	598.495
保存終了波長[nm]	1274.802
保存ﾋﾟｯﾁ波長[nm]	全波長

>>>>>>>>>> Data Start <<<<<<<<<<<<
598.495	27485.525188
598.713	27485.525188
598.931	27485.525188
599.148	27485.525188
599.366	0.000000
599.584	0.000000
599.802	-993.481989
600.020	3.995923
600.238	-37.168867
600.455	222.405770
600.673	178.493320
600.891	79.591983
601.109	76.470705
601.326	74.843480
601.544	73.113300
601.762	72.808263
601.979	73.159949
602.197	73.403783
602.415	73.717425
602.632	73.721805
602.850	73.694192
603.067	74.054783
603.285	74.276057
603.502	74.090308
603.720	73.872692
603.938	74.063976
604.155	74.080771
604.372	73.870776
604.590	73.766785
604.807	73.546282
605.025	73.483279
605.242	73.515338
605.460	73.118513
605.677	72.769672
605.894	72.960028
606.112	73.556587
606.329	74.008245
606.546	74.602877
606.764	75.084709
606.981	75.407974
607.198	75.753789
607.415	76.075384
607.633	76.296652
607.850	76.833377
608.067	77.446593
608.284	77.697610
608.501	77.515536
608.718	77.588385
608.935	77.560964
609.153	77.382277
609.370	77.320982
609.587	77.184613
609.804	77.059512
610.021	77.006992
610.238	76.882258
610.455	76.497764
610.672	76.296924
610.889	76.436451
611.106	76.484852
611.323	76.396313
611.540	76.528255
611.756	76.655662
611.973	76.863570
612.190	77.138386
612.407	77.417205
612.624	77.444805
612.841	77.703902
613.057	78.008100
613.274	78.070518
613.491	78.192109
613.708	78.603961
613.925	78.827914
614.141	78.836227
614.358	78.954512
614.575	79.077879
614.791	78.943032
615.008	78.946185
615.225	78.830897
615.441	78.583008
615.658	78.574370
615.874	78.543686
616.091	78.537652
616.307	78.722760
616.524	78.880445
616.740	78.802767
616.957	78.781239
617.173	78.765982
617.390	78.932245
617.606	79.266189
617.823	79.665535
618.039	79.915082
618.256	80.090655
618.472	80.149092
618.688	80.106213
618.905	80.143181
619.121	80.270866
619.337	80.444933
619.554	80.740167
619.770	80.656836
619.986	80.453696
620.202	80.319698
620.419	80.297610
620.635	80.233736
620.851	80.031522
621.067	79.924265
621.283	80.067838
621.499	80.116704
621.716	79.662659
621.932	79.386513
622.148	79.495915
622.364	79.547948
622.580	79.428953
622.796	79.203134
623.012	79.097361
623.228	79.200286
623.444	79.379005
623.660	79.322419
623.876	79.373731
624.092	79.717228
624.308	79.842530
624.524	79.790567
624.740	79.741015
624.955	79.797895
625.171	79.819365
625.387	79.714832
625.603	79.765742
625.819	79.797012
626.034	79.708408
626.250	79.573361
626.466	79.522278
626.682	79.543872
626.897	79.660047
627.113	79.895311
627.329	80.047874
627.544	80.031838
627.760	79.954755
627.976	79.707171
628.191	79.438532
628.407	79.559230
628.623	80.041825
628.838	80.589115
629.054	80.973113
629.269	81.220068
629.485	81.506215
629.700	81.922657
629.916	82.458482
630.131	82.715174
630.347	82.840310
630.562	83.035638
630.777	83.003501
630.993	82.627020
631.208	82.097314
631.424	81.803196
631.639	81.717070
631.854	81.535365
632.070	81.321902
632.285	81.197680
632.500	81.231452
632.715	81.221019
632.931	81.117503
633.146	81.041978
633.361	80.964824
633.576	81.105413
633.791	81.267036
634.007	81.395303
634.222	81.595642
634.437	81.730006
634.652	82.013840
634.867	82.484432
635.082	83.158231
635.297	83.832922
635.512	84.391315
635.727	84.926690
635.942	85.261469
636.157	85.629218
636.372	85.712180
636.587	85.365859
636.802	85.047726
637.017	84.626572
637.232	84.160266
637.447	83.928964
637.662	83.905582
637.876	83.772141
638.091	83.360276
638.306	82.798571
638.521	82.302456
638.736	82.207348
638.951	82.487294
639.165	82.619549
639.380	82.580654
639.595	82.590356
639.809	82.406002
640.024	82.172673
640.239	82.343321
640.453	82.614532
640.668	82.956772
640.883	83.015620
641.097	82.788557
641.312	82.463325
641.526	82.317596
641.741	82.342827
641.955	82.379713
642.170	82.451640
642.384	82.531277
642.599	82.421115
642.813	82.604108
643.028	83.029153
643.242	83.554222
643.457	83.990382
643.671	84.391755
643.885	84.494027
644.100	84.412787
644.314	84.367771
644.528	84.328978
644.743	84.146378
644.957	84.131819
645.171	84.147645
645.386	83.784526
645.600	83.444361
645.814	83.328384
646.028	83.447629
646.242	83.883558
646.457	84.040292
646.671	83.920693
646.885	83.856666
647.099	84.092932
647.313	84.173503
647.527	83.935211
647.741	84.096260
647.955	84.504607
648.169	85.036497
648.383	85.423351
648.597	85.595485
648.811	85.983229
649.025	86.457300
649.239	86.719655
649.453	86.656349
649.667	86.743831
649.881	87.372559
650.095	87.652017
650.309	87.413814
650.523	86.937769
650.737	86.477348
650.950	86.275984
651.164	86.377363
651.378	86.757173
651.592	86.880914
651.805	86.867862
652.019	87.036713
652.233	86.951506
652.447	86.903254
652.660	87.029554
652.874	87.302121
653.088	87.545255
653.301	87.592983
653.515	87.380569
653.728	87.067395
653.942	87.027729
654.156	86.951626
654.369	86.444414
654.583	85.920536
654.796	85.775316
655.010	85.720596
655.223	85.635473
655.437	85.563280
655.650	85.596574
655.863	85.650408
656.077	85.511047
656.290	85.547775
656.504	85.799142
656.717	85.979922
656.930	85.874221
657.144	85.324173
657.357	84.920732
657.570	84.703931
657.783	84.622687
657.997	84.438954
658.210	84.273641
658.423	84.229473
658.636	84.115017
658.849	83.949423
659.063	83.938196
659.276	84.311444
659.489	84.896560
659.702	85.397367
659.915	85.365172
660.128	84.840804
660.341	84.584373
660.554	84.609688
660.767	84.734752
660.980	84.968425
661.193	85.136468
661.406	85.195493
661.619	85.144585
661.832	85.038655
662.045	84.779083
662.258	84.848688
662.471	85.229641
662.684	85.352405
662.897	85.318695
663.110	85.019336
663.322	84.407389
663.535	83.871699
663.748	83.563205
663.961	83.589071
664.174	83.597780
664.386	83.559325
664.599	83.708114
664.812	83.862930
665.024	83.965895
665.237	84.027053
665.450	84.313610
665.662	84.607939
665.875	84.790975
666.088	84.933668
666.300	84.686124
666.513	84.529929
666.725	84.808345
666.938	84.901832
667.150	84.933208
667.363	85.056310
667.575	85.046435
667.788	84.944752
668.000	85.119835
668.213	85.546358
668.425	85.938906
668.638	86.152293
668.850	86.356346
669.062	86.336643
669.275	86.405607
669.487	86.708192
669.699	87.036827
669.912	87.392749
670.124	87.553135
670.336	87.407550
670.548	87.350013
670.761	87.264097
670.973	87.420882
671.185	87.624424
671.397	87.596618
671.609	87.457917
671.822	87.084388
672.034	86.635246
672.246	86.376104
672.458	86.493129
672.670	86.963878
672.882	86.932659
673.094	86.496122
673.306	86.137073
673.518	85.888670
673.730	85.729506
673.942	85.534996
674.154	85.366337
674.366	85.413709
674.578	85.437311
674.790	85.193177
675.002	84.872243
675.214	84.891706
675.425	84.970301
675.637	84.958970
675.849	84.870702
676.061	84.627848
676.273	84.348904
676.484	84.377173
676.696	84.538679
676.908	84.760506
677.120	84.949182
677.331	84.822808
677.543	84.445700
677.755	84.135925
677.966	84.062734
678.178	83.984238
678.389	84.178433
678.601	84.424206
678.813	84.281597
679.024	83.793175
679.236	83.273289
679.447	82.942946
679.659	82.799812
679.870	82.571149
680.082	82.480285
680.293	82.065566
680.505	81.722824
680.716	81.625418
680.927	81.567991
681.139	81.559884
681.350	81.600992
681.562	81.611199
681.773	81.739283
681.984	81.868632
682.196	82.336427
682.407	82.918052
682.618	83.324532
682.829	83.491249
683.041	83.487777
683.252	83.617305
683.463	83.861908
683.674	84.046497
683.885	84.152821
684.097	83.829414
684.308	83.578849
684.519	83.173143
684.730	82.515558
684.941	82.165699
685.152	82.198378
685.363	82.305809
685.574	82.079284
685.785	81.522591
685.996	81.103427
686.207	80.683332
686.418	80.536530
686.629	80.363495
686.840	80.369262
687.051	80.650698
687.262	80.923034
687.473	80.844717
687.684	80.505904
687.894	80.437099
688.105	80.965861
688.316	81.339379
688.527	81.605233
688.738	81.714755
688.948	81.626871
689.159	81.391412
689.370	80.984777
689.580	80.670165
689.791	80.646051
690.002	80.775788
690.212	80.989290
690.423	80.862938
690.634	80.828093
690.844	80.999768
691.055	81.476375
691.266	81.984713
691.476	82.280047
691.687	82.750738
691.897	83.098030
692.108	83.109198
692.318	83.079495
692.529	82.960177
692.739	82.914233
692.949	82.812020
693.160	82.590616
693.370	82.340255
693.581	82.350480
693.791	82.666902
694.001	82.760381
694.212	82.745116
694.422	82.722206
694.632	82.322590
694.843	81.620715
695.053	81.078246
695.263	80.766747
695.473	80.445550
695.683	79.964740
695.894	79.379973
696.104	78.808071
696.314	78.363732
696.524	78.050374
696.734	77.963973
696.944	78.200643
697.154	78.561906
697.365	78.759772
697.575	78.613186
697.785	78.434094
697.995	78.110416
698.205	77.784306
698.415	77.563601
698.625	77.366888
698.834	77.144278
699.044	76.799936
699.254	76.527615
699.464	76.269286
699.674	75.817902
699.884	75.551217
700.094	75.382014
700.304	75.399028
700.513	75.406880
700.723	75.280668
700.933	75.217095
701.143	75.280361
701.353	75.200753
701.562	74.972388
701.772	74.898507
701.982	75.175170
702.191	75.609901
702.401	76.059819
702.611	76.260004
702.820	76.228256
703.030	76.255179
703.239	76.415887
703.449	76.456645
703.659	76.560232
703.868	76.651815
704.078	76.469974
704.287	76.001562
704.497	75.320398
704.706	74.638719
704.916	74.206154
705.125	73.957852
705.334	73.539273
705.544	72.957298
705.753	72.501774
705.962	72.228111
706.172	71.946846
706.381	71.768643
706.590	71.793736
706.800	71.946173
707.009	72.270320
707.218	72.689245
707.428	72.951723
707.637	73.089554
707.846	73.240081
708.055	73.493638
708.264	73.724598
708.474	74.020318
708.683	74.197032
708.892	74.066797
709.101	73.893754
709.310	73.530374
709.519	72.830361
709.728	72.249011
709.937	71.901141
710.146	71.543566
710.355	70.954103
710.564	70.207516
710.773	69.554790
710.982	69.286767
711.191	69.219494
711.400	69.222990
711.609	69.215213
711.818	69.255519
712.027	69.219590
712.235	69.237199
712.444	69.188742
712.653	68.901450
712.862	68.522564
713.071	68.190109
713.279	67.731019
713.488	67.331675
713.697	66.910353
713.906	66.512402
714.114	66.217585
714.323	65.950188
714.532	65.619498
714.740	65.328633
714.949	65.288547
715.157	65.549131
715.366	65.659408
715.575	65.614623
715.783	65.432184
715.992	65.014992
716.200	64.445611
716.409	63.877730
716.617	63.392306
716.826	62.872946
717.034	62.432714
717.242	62.110729
717.451	61.555575
717.659	60.951242
717.868	60.593000
718.076	60.501999
718.284	60.544100
718.493	60.657850
718.701	60.836510
718.909	60.979522
719.118	61.030136
719.326	61.007517
719.534	60.915251
719.742	61.027406
719.951	61.278650
720.159	61.184999
720.367	60.824106
720.575	60.579234
720.783	60.557102
720.991	60.492993
721.199	60.373015
721.408	60.165189
721.616	59.759616
721.824	59.415974
722.032	59.047682
722.240	58.512548
722.448	58.161299
722.656	57.943483
722.864	57.571778
723.072	56.910986
723.280	56.208637
723.487	55.784714
723.695	55.583741
723.903	55.638442
724.111	55.624410
724.319	55.493587
724.527	55.452775
724.735	55.594551
724.942	55.677486
725.150	55.633365
725.358	55.546463
725.566	55.429321
725.773	55.121863
725.981	54.715008
726.189	54.276151
726.396	53.796256
726.604	53.271591
726.812	52.739800
727.019	52.027565
727.227	51.183125
727.435	50.565590
727.642	50.214281
727.850	49.866495
728.057	49.335817
728.265	48.737460
728.472	48.130767
728.680	47.526233
728.887	47.114358
729.095	46.889452
729.302	46.656821
729.509	46.441194
729.717	46.256721
729.924	45.964091
730.132	45.777657
730.339	45.666762
730.546	45.528664
730.753	45.465904
730.961	45.499082
731.168	45.295130
731.375	44.830613
731.583	44.382827
731.790	44.038769
731.997	43.777496
732.204	43.455963
732.411	43.151024
732.618	43.032224
732.826	43.049455
733.033	42.938042
733.240	42.608046
733.447	42.262018
733.654	42.020280
733.861	41.750777
734.068	41.515412
734.275	41.257350
734.482	41.049472
734.689	40.690041
734.896	40.118364
735.103	39.623067
735.310	39.232735
735.517	38.941848
735.724	38.749401
735.931	38.572441
736.137	38.446433
736.344	38.305206
736.551	37.990131
736.758	37.614359
736.965	37.263583
737.171	36.946166
737.378	36.546245
737.585	36.216841
737.792	35.896857
737.998	35.595742
738.205	35.369083
738.412	35.161330
738.618	34.927549
738.825	34.684309
739.032	34.650864
739.238	34.660014
739.445	34.594221
739.651	34.495956
739.858	34.343273
740.064	34.232196
740.271	34.180927
740.477	33.916334
740.684	33.523417
740.890	33.203095
741.097	32.956586
741.303	32.584709
741.510	32.270965
741.716	32.074499
741.922	31.928539
742.129	31.866968
742.335	31.781806
742.541	31.569365
742.748	31.378772
742.954	31.238979
743.160	31.046436
743.366	30.895443
743.573	30.695368
743.779	30.446233
743.985	30.284359
744.191	30.051905
744.397	29.614146
744.604	29.202405
744.810	29.007677
745.016	28.906915
745.222	28.842493
745.428	28.706155
745.634	28.489404
745.840	28.318819
746.046	28.098211
746.252	27.811837
746.458	27.596507
746.664	27.557222
746.870	27.690058
747.076	27.725997
747.282	27.739336
747.488	27.665669
747.694	27.500832
747.900	27.452087
748.105	27.497708
748.311	27.626015
748.517	27.816125
748.723	27.956664
748.929	28.049513
749.134	27.994190
749.340	27.947585
749.546	28.066417
749.752	28.202749
749.957	28.484897
750.163	28.649878
750.369	28.743201
750.574	28.758368
750.780	28.785102
750.985	28.745103
751.191	28.654616
751.397	28.616894
751.602	28.598405
751.808	28.525323
752.013	28.573044
752.219	28.531494
752.424	28.578069
752.630	28.548734
752.835	28.625859
753.041	28.652479
753.246	28.753959
753.451	28.867826
753.657	28.910724
753.862	28.866519
754.067	28.762413
754.273	28.566749
754.478	28.521945
754.683	28.549346
754.889	28.671421
755.094	28.862608
755.299	28.994070
755.504	29.158140
755.710	29.447233
755.915	29.715896
756.120	29.885627
756.325	29.906204
756.530	29.945838
756.735	30.017063
756.940	30.031975
757.146	30.025801
757.351	30.033456
757.556	30.161270
757.761	30.270164
757.966	30.320294
758.171	30.391741
758.376	30.659045
758.581	31.095651
758.786	31.581439
758.990	32.089894
759.195	32.547615
759.400	32.861520
759.605	33.044351
759.810	33.232950
760.015	33.440215
760.220	33.703830
760.424	33.942730
760.629	33.984972
760.834	34.111715
761.039	34.399842
761.244	34.579165
761.448	34.771008
761.653	34.992583
761.858	35.194367
762.062	35.439589
762.267	35.769293
762.472	35.973552
762.676	36.038749
762.881	36.107156
763.085	36.232010
763.290	36.383931
763.494	36.467730
763.699	36.497773
763.903	36.680010
764.108	36.993366
764.312	37.239860
764.517	37.501158
764.721	37.842077
764.926	38.342692
765.130	38.858390
765.335	39.038543
765.539	39.109075
765.743	39.321668
765.948	39.506633
766.152	39.714525
766.356	39.925640
766.560	40.020422
766.765	39.913329
766.969	39.837391
767.173	39.829421
767.377	40.124226
767.582	40.784796
767.786	41.352100
767.990	41.818727
768.194	42.231783
768.398	42.621073
768.602	43.011571
768.806	43.597177
769.010	44.314322
769.215	44.899174
769.419	45.425501
769.623	45.740735
769.827	45.794166
770.031	45.879712
770.234	45.867483
770.438	45.940797
770.642	46.041055
770.846	46.222239
771.050	46.475111
771.254	46.753005
771.458	46.897467
771.662	46.989667
771.866	47.138390
772.069	47.327797
772.273	47.373800
772.477	47.337526
772.681	47.450991
772.885	47.528090
773.088	47.374773
773.292	47.116386
773.496	46.967885
773.699	47.093667
773.903	47.340583
774.107	47.385778
774.310	47.438830
774.514	47.711752
774.717	48.160763
774.921	48.398839
775.124	48.443436
775.328	48.529371
775.531	48.600233
775.735	48.608077
775.938	48.532688
776.142	48.434428
776.345	48.504634
776.549	48.722082
776.752	48.823523
776.956	49.055881
777.159	49.389964
777.362	49.667576
777.566	49.897440
777.769	50.176865
777.972	50.487128
778.176	50.827989
778.379	51.171390
778.582	51.471810
778.785	51.619763
778.989	52.039710
779.192	52.435096
779.395	52.681215
779.598	53.126458
779.801	53.455484
780.004	53.651345
780.207	53.877612
780.411	54.042812
780.614	54.082424
780.817	54.034482
781.020	53.892604
781.223	53.685626
781.426	53.432569
781.629	53.399655
781.832	53.456152
782.035	53.728245
782.238	54.121307
782.440	54.325804
782.643	54.497287
782.846	54.713094
783.049	55.166178
783.252	55.631669
783.455	55.832878
783.658	55.988176
783.860	56.042343
784.063	56.189485
784.266	56.387500
784.469	56.574630
784.671	56.821347
784.874	56.972102
785.077	56.965299
785.279	56.923936
785.482	57.175148
785.685	57.484085
785.887	57.609250
786.090	57.728338
786.293	57.922676
786.495	58.067406
786.698	58.176998
786.900	58.095494
787.103	58.040682
787.305	58.309176
787.508	58.640136
787.710	58.795435
787.913	58.801675
788.115	58.842088
788.317	58.850598
788.520	58.497498
788.722	58.151115
788.924	57.879669
789.127	57.870917
789.329	57.906787
789.531	57.805529
789.734	57.524280
789.936	57.191229
790.138	57.118371
790.340	57.525180
790.543	58.131296
790.745	58.823418
790.947	59.414389
791.149	60.003424
791.351	60.568329
791.553	61.127813
791.756	61.596516
791.958	62.154763
792.160	62.749768
792.362	62.997486
792.564	63.105516
792.766	63.198699
792.968	63.361068
793.170	63.510934
793.372	63.432469
793.574	63.222058
793.776	62.887257
793.978	62.574238
794.180	62.360053
794.381	62.311973
794.583	62.596920
794.785	62.598746
794.987	62.336664
795.189	62.028425
795.391	61.907422
795.592	62.162773
795.794	62.639175
795.996	63.456618
796.198	64.145444
796.399	64.504963
796.601	64.685605
796.803	64.695868
797.004	64.729563
797.206	65.026977
797.407	65.348987
797.609	65.490616
797.811	65.483652
798.012	65.353137
798.214	64.992074
798.415	64.684884
798.617	64.502274
798.818	64.597611
799.020	64.816299
799.221	65.108526
799.423	65.440924
799.624	65.875997
799.826	66.434195
800.027	66.834209
800.228	66.936829
800.430	67.025925
800.631	67.261794
800.832	67.560680
801.034	67.462886
801.235	67.387790
801.436	67.414298
801.637	67.203259
801.839	66.871086
802.040	66.511866
802.241	66.080206
802.442	65.855729
802.643	65.790964
802.844	65.717474
803.046	65.559328
803.247	65.565408
803.448	65.556367
803.649	65.369367
803.850	65.402935
804.051	65.608251
804.252	65.792547
804.453	65.883167
804.654	66.014014
804.855	66.147624
805.056	66.486634
805.257	66.901298
805.458	67.193160
805.659	67.500423
805.859	67.952376
806.060	68.486840
806.261	69.057455
806.462	69.645147
806.663	70.280713
806.864	70.727063
807.064	70.965894
807.265	71.078979
807.466	71.204746
807.667	71.527823
807.867	71.887484
808.068	72.037324
808.269	71.745105
808.469	71.328746
808.670	70.955445
808.870	70.729659
809.071	70.894317
809.272	71.402432
809.472	71.838325
809.673	72.420347
809.873	73.011536
810.074	73.380581
810.274	73.763379
810.475	74.295016
810.675	74.568896
810.876	74.701375
811.076	74.841247
811.276	74.568548
811.477	73.821970
811.677	72.984201
811.878	72.109851
812.078	71.157976
812.278	70.705328
812.479	70.468542
812.679	70.175131
812.879	70.193186
813.079	70.223225
813.280	70.057840
813.480	69.959708
813.680	70.100819
813.880	70.307001
814.080	70.314187
814.280	70.323767
814.480	70.044654
814.681	69.698896
814.881	69.534771
815.081	69.148169
815.281	68.738014
815.481	68.726150
815.681	68.774121
815.881	68.820443
816.081	68.867143
816.281	68.971154
816.481	69.335294
816.681	69.666820
816.880	70.078046
817.080	70.377636
817.280	70.805300
817.480	71.303423
817.680	71.568626
817.880	71.884337
818.080	72.012555
818.279	71.965065
818.479	72.125140
818.679	72.233696
818.879	72.442118
819.078	72.675746
819.278	72.939760
819.478	73.073432
819.677	73.272121
819.877	73.571278
820.077	73.726590
820.276	73.954177
820.476	74.590091
820.675	75.258661
820.875	75.456681
821.074	75.509438
821.274	75.663572
821.473	75.869934
821.673	76.183894
821.872	76.370903
822.072	76.415592
822.271	76.722152
822.471	77.038155
822.670	76.844579
822.869	76.366064
823.069	75.804765
823.268	75.174206
823.467	74.633180
823.667	74.272968
823.866	74.050069
824.065	74.207448
824.265	74.662186
824.464	75.181316
824.663	75.587037
824.862	76.061417
825.061	76.635981
825.261	77.614402
825.460	78.661611
825.659	79.302500
825.858	79.409667
826.057	79.169087
826.256	78.829629
826.455	78.346044
826.654	77.539634
826.853	77.086386
827.052	77.127223
