Date	2025年07月03日木曜日 09時56分05秒
Spectrometers	SR401765
ダーク	使用
リファレンス	使用
積分時間[msec]	300
平均回数	1
ｽﾑｰｼﾞﾝｸﾞ	5
Electrical Dark	USE
ピクセル数	3648
計測モード	反射率
保存開始波長[nm]	598.495
保存終了波長[nm]	1274.802
保存ﾋﾟｯﾁ波長[nm]	全波長

>>>>>>>>>> Data Start <<<<<<<<<<<<
598.495	27485.525188
598.713	27485.525188
598.931	27485.525188
599.148	27485.525188
599.366	0.000000
599.584	0.000000
599.802	174.416001
600.020	65.152132
600.238	174.507578
600.455	212.537034
600.673	167.889514
600.891	59.931293
601.109	59.211487
601.326	59.699024
601.544	58.582009
601.762	58.052329
601.979	58.283959
602.197	58.812037
602.415	59.133902
602.632	58.946574
602.850	59.050060
603.067	59.258169
603.285	59.633253
603.502	59.770122
603.720	59.643502
603.938	59.856747
604.155	60.119218
604.372	60.105144
604.590	60.043411
604.807	60.033222
605.025	60.168460
605.242	60.158037
605.460	60.052024
605.677	59.828968
605.894	59.885169
606.112	60.086119
606.329	60.307565
606.546	60.711237
606.764	61.089845
606.981	61.294475
607.198	61.414816
607.415	61.746032
607.633	62.196525
607.850	62.576154
608.067	63.048498
608.284	63.347412
608.501	63.488201
608.718	63.710758
608.935	63.715876
609.153	63.678485
609.370	63.623728
609.587	63.653129
609.804	63.857241
610.021	63.975362
610.238	64.063492
610.455	64.071160
610.672	63.988228
610.889	64.104783
611.106	64.285813
611.323	64.195513
611.540	64.301883
611.756	64.565854
611.973	64.608869
612.190	64.393494
612.407	64.262180
612.624	64.245270
612.841	64.295852
613.057	64.686053
613.274	65.002236
613.491	65.348992
613.708	66.077935
613.925	66.440720
614.141	66.605983
614.358	67.087505
614.575	67.612287
614.791	68.019648
615.008	68.393561
615.225	68.636109
615.441	68.463652
615.658	68.361765
615.874	68.328180
616.091	68.238616
616.307	68.369571
616.524	68.567802
616.740	68.554819
616.957	68.541946
617.173	68.491960
617.390	68.518001
617.606	68.611902
617.823	69.072882
618.039	69.627744
618.256	69.845642
618.472	70.033332
618.688	70.163800
618.905	70.185274
619.121	70.517331
619.337	70.889320
619.554	71.221616
619.770	71.265819
619.986	71.233035
620.202	71.071195
620.419	70.828394
620.635	70.657764
620.851	70.327686
621.067	70.268144
621.283	70.511892
621.499	70.415769
621.716	69.971802
621.932	69.797032
622.148	69.940128
622.364	70.095254
622.580	70.115002
622.796	70.046268
623.012	70.201867
623.228	70.723068
623.444	71.032088
623.660	71.084326
623.876	71.161022
624.092	71.444170
624.308	71.658998
624.524	71.652289
624.740	71.594512
624.955	71.634826
625.171	71.714428
625.387	71.448653
625.603	71.078803
625.819	71.037411
626.034	71.145829
626.250	71.113158
626.466	71.169348
626.682	71.169164
626.897	71.282323
627.113	71.504640
627.329	71.695364
627.544	71.853979
627.760	72.087081
627.976	72.249642
628.191	72.223764
628.407	72.337558
628.623	72.881159
628.838	73.354510
629.054	73.634423
629.269	73.913772
629.485	74.259508
629.700	74.739432
629.916	75.337188
630.131	75.838207
630.347	76.191047
630.562	76.473188
630.777	76.456136
630.993	76.220654
631.208	76.015264
631.424	75.952983
631.639	75.935352
631.854	75.847738
632.070	75.711584
632.285	75.543016
632.500	75.455013
632.715	75.360052
632.931	75.349599
633.146	75.476215
633.361	75.578681
633.576	75.857683
633.791	75.969686
634.007	75.929593
634.222	76.020293
634.437	76.203798
634.652	76.415346
634.867	76.719254
635.082	77.245047
635.297	77.792365
635.512	78.109161
635.727	78.328593
635.942	78.344752
636.157	78.552314
636.372	78.766922
636.587	78.614918
636.802	78.297999
637.017	78.055965
637.232	77.937945
637.447	77.928856
637.662	77.918380
637.876	77.889156
638.091	77.682142
638.306	77.364952
638.521	77.144066
638.736	77.099581
638.951	77.224236
639.165	77.258649
639.380	77.149486
639.595	76.949046
639.809	76.637736
640.024	76.527462
640.239	76.832814
640.453	77.145074
640.668	77.341038
640.883	77.283020
641.097	77.272546
641.312	77.395570
641.526	77.438422
641.741	77.495118
641.955	77.508547
642.170	77.425290
642.384	77.307564
642.599	77.039529
642.813	77.128690
643.028	77.684388
643.242	78.294089
643.457	78.657530
643.671	78.775793
643.885	78.897717
644.100	78.919602
644.314	79.016220
644.528	79.154924
644.743	79.120795
644.957	79.256739
645.171	79.402709
645.386	79.160406
645.600	78.975436
645.814	78.905303
646.028	79.127819
646.242	79.433838
646.457	79.515232
646.671	79.404186
646.885	79.432451
647.099	79.656709
647.313	79.781489
647.527	79.660043
647.741	79.730734
647.955	79.931511
648.169	80.287477
648.383	80.497275
648.597	80.632488
648.811	80.864112
649.025	81.186237
649.239	81.450830
649.453	81.471432
649.667	81.412667
649.881	81.659624
650.095	81.636081
650.309	81.361779
650.523	81.070529
650.737	80.933878
650.950	80.974235
651.164	81.318227
651.378	81.763050
651.592	81.924278
651.805	81.884411
652.019	81.865073
652.233	81.873402
652.447	82.000517
652.660	82.177403
652.874	82.253057
653.088	82.207219
653.301	82.112648
653.515	81.964364
653.728	81.720729
653.942	81.575985
654.156	81.525354
654.369	81.325346
654.583	80.926115
654.796	80.824077
655.010	80.843672
655.223	80.884815
655.437	80.826201
655.650	80.872632
655.863	80.684183
656.077	80.539063
656.290	80.674565
656.504	80.877904
656.717	81.087104
656.930	81.305786
657.144	81.219686
657.357	81.209922
657.570	81.259020
657.783	81.415030
657.997	81.598690
658.210	81.784943
658.423	81.665232
658.636	81.407715
658.849	81.126648
659.063	80.917558
659.276	80.987725
659.489	81.146524
659.702	81.257095
659.915	81.127924
660.128	80.727380
660.341	80.387420
660.554	80.338216
660.767	80.725872
660.980	81.244575
661.193	81.593824
661.406	81.866269
661.619	82.046392
661.832	82.234777
662.045	82.280670
662.258	82.402352
662.471	82.631271
662.684	82.723363
662.897	82.559863
663.110	81.956256
663.322	81.196758
663.535	80.745585
663.748	80.587876
663.961	80.482270
664.174	80.236789
664.386	80.046466
664.599	80.095427
664.812	80.286549
665.024	80.284392
665.237	80.554312
665.450	81.110865
665.662	81.623318
665.875	82.127834
666.088	82.541594
666.300	82.553542
666.513	82.621878
666.725	82.886710
666.938	83.013671
667.150	83.126430
667.363	83.453524
667.575	83.491500
667.788	83.520336
668.000	83.854201
668.213	84.058418
668.425	83.956896
668.638	83.923256
668.850	84.002537
669.062	84.174900
669.275	84.487132
669.487	84.724371
669.699	84.949452
669.912	85.255435
670.124	85.300173
670.336	84.962067
670.548	84.960110
670.761	85.186338
670.973	85.465604
671.185	85.747252
671.397	85.489305
671.609	85.085175
671.822	84.684727
672.034	84.300706
672.246	83.994468
672.458	83.896695
672.670	84.045364
672.882	84.010753
673.094	83.837186
673.306	83.680828
673.518	83.569374
673.730	83.724195
673.942	83.699803
674.154	83.571760
674.366	83.574951
674.578	83.649997
674.790	83.744850
675.002	83.933108
675.214	83.959416
675.425	83.733320
675.637	83.557550
675.849	83.329912
676.061	82.947677
676.273	82.732790
676.484	82.834800
676.696	83.007956
676.908	83.336001
677.120	83.707794
677.331	83.586428
677.543	83.138985
677.755	82.857287
677.966	82.775471
678.178	82.653896
678.389	82.760517
678.601	83.045498
678.813	83.297598
679.024	83.247527
679.236	82.841680
679.447	82.312888
679.659	81.910685
679.870	81.778606
680.082	81.795850
680.293	81.452620
680.505	81.339732
680.716	81.382367
680.927	81.136190
681.139	80.683346
681.350	80.403722
681.562	80.505851
681.773	80.786458
681.984	80.983525
682.196	81.296819
682.407	81.677445
682.618	82.028626
682.829	82.066548
683.041	82.059292
683.252	82.315011
683.463	82.743174
683.674	83.088168
683.885	83.130829
684.097	82.807239
684.308	82.673400
684.519	82.348385
684.730	81.880376
684.941	81.710090
685.152	81.800882
685.363	81.784146
685.574	81.498345
685.785	81.180448
685.996	80.850950
686.207	80.457782
686.418	80.298098
686.629	80.218027
686.840	80.511660
687.051	80.940267
687.262	81.172097
687.473	81.168300
687.684	81.118520
687.894	81.360459
688.105	81.822070
688.316	82.182282
688.527	82.502767
688.738	82.593265
688.948	82.437406
689.159	82.018039
689.370	81.462146
689.580	81.124875
689.791	81.037249
690.002	80.977533
690.212	80.920383
690.423	80.603763
690.634	80.345047
690.844	80.275215
691.055	80.517880
691.266	80.964428
691.476	81.359000
691.687	81.897172
691.897	82.356860
692.108	82.497090
692.318	82.659085
692.529	82.632517
692.739	82.602393
692.949	82.613973
693.160	82.559961
693.370	82.598901
693.581	82.811097
693.791	83.093837
694.001	83.203024
694.212	83.188416
694.422	83.155701
694.632	82.847029
694.843	82.446200
695.053	82.380787
695.263	82.344179
695.473	82.099475
695.683	81.715181
695.894	81.233995
696.104	80.903474
696.314	80.614749
696.524	80.607562
696.734	80.856841
696.944	81.194252
697.154	81.509900
697.365	81.556013
697.575	81.441538
697.785	81.462908
697.995	81.286247
698.205	80.985702
698.415	80.724563
698.625	80.655226
698.834	80.418154
699.044	79.893135
699.254	79.606693
699.464	79.446132
699.674	79.109443
699.884	78.771143
700.094	78.498848
700.304	78.338816
700.513	78.351662
700.723	78.375240
700.933	78.326087
701.143	78.270622
701.353	78.474383
701.562	78.478413
701.772	78.479795
701.982	78.938512
702.191	79.441612
702.401	79.814413
702.611	80.152384
702.820	80.287957
703.030	80.314596
703.239	80.401512
703.449	80.516873
703.659	80.652855
703.868	80.796156
704.078	80.639032
704.287	79.983328
704.497	79.448334
704.706	79.066024
704.916	78.669801
705.125	78.321792
705.334	77.940075
705.544	77.508286
705.753	77.242179
705.962	76.970347
706.172	76.610576
706.381	76.501982
706.590	76.666035
706.800	76.836681
707.009	77.117863
707.218	77.703871
707.428	78.235324
707.637	78.516127
707.846	78.650105
708.055	78.852765
708.264	79.259382
708.474	79.793915
708.683	80.133307
708.892	80.117629
709.101	80.101400
709.310	80.037885
709.519	79.566772
709.728	79.045975
709.937	78.732059
710.146	78.559141
710.355	78.226886
710.564	77.521883
710.773	76.920886
710.982	76.581720
711.191	76.336852
711.400	76.211733
711.609	76.164975
711.818	76.258384
712.027	76.403580
712.235	76.523132
712.444	76.513094
712.653	76.204166
712.862	75.787405
713.071	75.393662
713.279	75.139341
713.488	75.196050
713.697	75.040602
713.906	74.747523
714.114	74.461482
714.323	74.114477
714.532	73.767928
714.740	73.459898
714.949	73.465169
715.157	73.809348
715.366	74.070504
715.575	74.139323
715.783	74.056083
715.992	73.899658
716.200	73.621050
716.409	73.351327
716.617	73.058272
716.826	72.719864
717.034	72.611406
717.242	72.471131
717.451	72.051847
717.659	71.737707
717.868	71.603528
718.076	71.617120
718.284	71.868543
718.493	72.148555
718.701	72.371574
718.909	72.734272
719.118	73.133016
719.326	73.209380
719.534	73.255140
719.742	73.425379
719.951	73.516720
720.159	73.289041
720.367	72.788885
720.575	72.309169
720.783	72.148816
720.991	72.157980
721.199	72.050539
721.408	71.684526
721.616	71.266578
721.824	70.855324
722.032	70.622738
722.240	70.379525
722.448	70.466704
722.656	70.728642
722.864	70.724246
723.072	70.272424
723.280	69.706348
723.487	69.457990
723.695	69.556905
723.903	69.850620
724.111	70.182537
724.319	70.405962
724.527	70.658247
724.735	70.874885
724.942	70.963041
725.150	70.890147
725.358	70.904918
725.566	70.962649
725.773	70.756710
725.981	70.437391
726.189	70.136309
726.396	69.797502
726.604	69.343670
726.812	68.823764
727.019	68.161161
727.227	67.482631
727.435	67.219558
727.642	67.069441
727.850	66.584187
728.057	65.945032
728.265	65.184084
728.472	64.363868
728.680	63.640384
728.887	63.158695
729.095	62.817419
729.302	62.489171
729.509	62.203858
729.717	61.909615
729.924	61.669006
730.132	61.781691
730.339	61.970162
730.546	62.138032
730.753	62.476038
730.961	62.774798
731.168	62.804560
731.375	62.615446
731.583	62.380191
731.790	62.218843
731.997	62.105299
732.204	61.975427
732.411	61.790094
732.618	61.633111
732.826	61.822249
733.033	61.897356
733.240	61.765327
733.447	61.519994
733.654	61.387235
733.861	61.247310
734.068	60.986226
734.275	60.784116
734.482	60.603881
734.689	60.283703
734.896	59.943278
735.103	59.469414
735.310	59.088128
735.517	58.790071
735.724	58.666673
735.931	58.499159
736.137	58.364960
736.344	58.267380
736.551	57.952787
736.758	57.525884
736.965	57.155524
737.171	56.786626
737.378	56.388453
737.585	55.819930
737.792	55.291715
737.998	54.940432
738.205	54.783702
738.412	54.701960
738.618	54.521342
738.825	54.319196
739.032	54.402187
739.238	54.374463
739.445	54.351380
739.651	54.168512
739.858	54.119226
740.064	54.076800
740.271	53.880977
740.477	53.397131
740.684	52.784494
740.890	52.287118
741.097	51.754250
741.303	51.066976
741.510	50.589999
741.716	50.211523
741.922	49.851092
742.129	49.588350
742.335	49.363485
742.541	49.007321
742.748	48.675247
742.954	48.370486
743.160	48.058943
743.366	47.711746
743.573	47.180831
743.779	46.729518
743.985	46.263517
744.191	46.072288
744.397	45.696513
744.604	45.178006
744.810	44.817285
745.016	44.408501
745.222	43.935660
745.428	43.406863
745.634	43.019142
745.840	42.695062
746.046	42.139273
746.252	41.615027
746.458	41.019981
746.664	40.602091
746.870	40.394021
747.076	40.177976
747.282	40.110955
747.488	40.036674
747.694	39.891116
747.900	39.747341
748.105	39.671016
748.311	39.779642
748.517	39.909286
748.723	39.809132
748.929	39.414572
749.134	38.955604
749.340	38.505448
749.546	38.107563
749.752	37.829568
749.957	37.568446
750.163	37.195234
750.369	36.698763
750.574	36.180104
750.780	35.660221
750.985	35.277668
751.191	35.023253
751.397	34.748323
751.602	34.431789
751.808	34.045919
752.013	33.576481
752.219	33.128285
752.424	32.649838
752.630	32.402409
752.835	32.014693
753.041	31.551249
753.246	31.124124
753.451	30.700660
753.657	30.239638
753.862	29.707152
754.067	29.103595
754.273	28.457998
754.478	27.988202
754.683	27.696306
754.889	27.275248
755.094	26.992384
755.299	26.653286
755.504	26.308117
755.710	26.056265
755.915	25.792870
756.120	25.384061
756.325	24.923728
756.530	24.565531
756.735	24.177521
756.940	23.757261
757.146	23.341736
757.351	22.883316
757.556	22.547999
757.761	22.216825
757.966	21.720776
758.171	21.229788
758.376	20.936820
758.581	20.751358
758.786	20.566369
758.990	20.425485
759.195	20.227118
759.400	19.974224
759.605	19.798109
759.810	19.544120
760.015	19.275348
760.220	19.157847
760.424	19.046614
760.629	18.880131
760.834	18.730915
761.039	18.579653
761.244	18.304753
761.448	18.035212
761.653	17.816006
761.858	17.572821
762.062	17.376112
762.267	17.262658
762.472	17.013305
762.676	16.705161
762.881	16.459299
763.085	16.296066
763.290	16.131977
763.494	16.012487
763.699	15.902351
763.903	15.683860
764.108	15.548328
764.312	15.431646
764.517	15.274348
764.721	15.255292
764.926	15.305973
765.130	15.254717
765.335	15.054952
765.539	14.937005
765.743	14.839871
765.948	14.806837
766.152	14.893553
766.356	14.853502
766.560	14.759587
766.765	14.642712
766.969	14.448673
767.173	14.251555
767.377	14.169039
767.582	14.225978
767.786	14.257591
767.990	14.267711
768.194	14.147690
768.398	14.005760
768.602	13.964127
768.806	13.940851
769.010	14.018159
769.215	14.102851
769.419	14.124510
769.623	14.237889
769.827	14.274232
770.031	14.293215
770.234	14.176516
770.438	14.174071
770.642	14.365412
770.846	14.478934
771.050	14.688966
771.254	14.817024
771.458	14.851341
771.662	14.872960
771.866	14.916469
772.069	15.024023
772.273	15.038280
772.477	15.154761
772.681	15.264914
772.885	15.176365
773.088	15.076342
773.292	15.022198
773.496	15.093402
773.699	15.271427
773.903	15.465980
774.107	15.603986
774.310	15.641777
774.514	15.714660
774.717	15.872101
774.921	15.974462
775.124	16.199861
775.328	16.456749
775.531	16.612863
775.735	16.597527
775.938	16.662416
776.142	16.817937
776.345	16.835630
776.549	17.014835
776.752	17.272150
776.956	17.443013
777.159	17.596861
777.362	17.754947
777.566	17.934554
777.769	18.220019
777.972	18.571688
778.176	18.836448
778.379	19.130702
778.582	19.513097
778.785	19.739729
778.989	20.047591
779.192	20.386528
779.395	20.813060
779.598	21.298042
779.801	21.638797
780.004	21.727017
780.207	21.875367
780.411	22.112925
780.614	22.215185
780.817	22.307205
781.020	22.463296
781.223	22.534940
781.426	22.656764
781.629	22.774047
781.832	22.806271
782.035	23.056408
782.238	23.396666
782.440	23.647752
782.643	23.896991
782.846	24.249196
783.049	24.697499
783.252	25.114215
783.455	25.561299
783.658	25.880296
783.860	26.141051
784.063	26.473349
784.266	26.736620
784.469	27.079270
784.671	27.492806
784.874	27.746725
785.077	27.905079
785.279	28.098772
785.482	28.409880
785.685	28.664932
785.887	28.826250
786.090	29.028464
786.293	29.331938
786.495	29.575363
786.698	29.762868
786.900	29.909782
787.103	30.115184
787.305	30.377031
787.508	30.577115
787.710	30.777431
787.913	31.004628
788.115	31.330600
788.317	31.476912
788.520	31.365433
788.722	31.318241
788.924	31.349111
789.127	31.440926
789.329	31.555309
789.531	31.751621
789.734	31.956271
789.936	32.026292
790.138	32.065938
790.340	32.359145
790.543	32.939045
790.745	33.528846
790.947	34.012682
791.149	34.331527
791.351	34.749987
791.553	35.354458
791.756	35.911109
791.958	36.408972
792.160	36.836333
792.362	37.086602
792.564	37.316834
792.766	37.573486
792.968	38.027623
793.170	38.491508
793.372	38.965104
793.574	39.127837
793.776	39.020165
793.978	38.800807
794.180	38.615215
794.381	38.713553
794.583	39.074115
794.785	39.274334
794.987	39.210702
795.189	39.044056
795.391	38.958759
795.592	39.145881
795.794	39.645462
795.996	40.244168
796.198	40.845164
796.399	41.411681
796.601	41.749330
796.803	41.953061
797.004	42.165052
797.206	42.474379
797.407	42.825052
797.609	43.164475
797.811	43.410361
798.012	43.451502
798.214	43.312685
798.415	43.282648
798.617	43.262632
798.818	43.434721
799.020	43.741202
799.221	43.961218
799.423	44.278191
799.624	44.571023
799.826	45.004556
800.027	45.351115
800.228	45.611713
800.430	46.029012
800.631	46.423763
800.832	46.759408
801.034	46.841127
801.235	46.826644
801.436	46.895955
801.637	46.907811
801.839	46.970673
802.040	46.916728
802.241	46.768591
802.442	46.746774
802.643	46.810645
802.844	46.840524
803.046	46.770135
803.247	46.724030
803.448	46.730732
803.649	46.797110
803.850	47.056607
804.051	47.268882
804.252	47.324899
804.453	47.338694
804.654	47.420014
804.855	47.573315
805.056	47.823660
805.257	48.132545
805.458	48.522307
805.659	49.037161
805.859	49.589947
806.060	50.027761
806.261	50.700917
806.462	51.559628
806.663	52.215752
806.864	52.770160
807.064	53.109932
807.265	53.434551
807.466	53.942378
807.667	54.437034
807.867	54.702016
808.068	54.977145
808.269	55.025404
808.469	54.749326
808.670	54.416240
808.870	54.358468
809.071	54.352801
809.272	54.695030
809.472	55.183767
809.673	55.793663
809.873	56.316866
810.074	56.769231
810.274	56.966324
810.475	57.344255
810.675	57.672368
810.876	57.815141
811.076	58.104362
811.276	58.197654
811.477	57.848554
811.677	57.214051
811.878	56.436163
812.078	56.113260
812.278	56.028787
812.479	56.152314
812.679	56.143325
812.879	56.220819
813.079	56.480065
813.280	56.429534
813.480	56.490632
813.680	56.837637
813.880	57.225389
814.080	57.411114
814.280	57.289072
814.480	56.994285
814.681	56.581973
814.881	56.316809
815.081	55.985060
815.281	55.596087
815.481	55.607286
815.681	55.724458
815.881	55.670566
816.081	55.537385
816.281	55.630186
816.481	56.026244
816.681	56.622339
816.880	57.281608
817.080	57.892359
817.280	58.335660
817.480	58.681802
817.680	58.927686
817.880	59.188019
818.080	59.452645
818.279	59.739270
818.479	59.905285
818.679	59.884279
818.879	59.983041
819.078	60.211926
819.278	60.194207
819.478	60.359984
819.677	60.873946
819.877	61.327801
820.077	61.502376
820.276	61.707240
820.476	62.224021
820.675	63.031672
820.875	63.514667
821.074	63.668057
821.274	63.751492
821.473	64.118495
821.673	64.470657
821.872	64.425116
822.072	64.310344
822.271	64.418912
822.471	64.534675
822.670	64.186046
822.869	63.430132
823.069	62.707824
823.268	62.165407
823.467	61.808264
823.667	61.523485
823.866	61.421927
824.065	61.779985
824.265	62.431870
824.464	63.197639
824.663	63.724342
824.862	64.455056
825.061	65.432599
825.261	66.348045
825.460	67.148680
825.659	67.660466
825.858	67.873118
826.057	68.016089
826.256	67.924275
826.455	67.530272
826.654	67.045291
826.853	67.004411
827.052	67.234114
