Date	2025年07月03日木曜日 09時54分43秒
Spectrometers	SR401765
ダーク	使用
リファレンス	使用
積分時間[msec]	300
平均回数	1
ｽﾑｰｼﾞﾝｸﾞ	5
Electrical Dark	USE
ピクセル数	3648
計測モード	反射率
保存開始波長[nm]	598.495
保存終了波長[nm]	1274.802
保存ﾋﾟｯﾁ波長[nm]	全波長

>>>>>>>>>> Data Start <<<<<<<<<<<<
598.495	27485.134557
598.713	27485.134557
598.931	27485.134557
599.148	27485.134557
599.366	0.000000
599.584	0.000000
599.802	3716.471330
600.020	284.453482
600.238	84.836254
600.455	120.383501
600.673	214.581114
600.891	46.020488
601.109	38.805761
601.326	37.623330
601.544	36.711942
601.762	36.584713
601.979	36.464130
602.197	36.279270
602.415	36.444077
602.632	36.653173
602.850	36.444304
603.067	36.459405
603.285	36.736756
603.502	37.051918
603.720	37.270425
603.938	37.581048
604.155	37.775910
604.372	38.038681
604.590	38.186733
604.807	38.385072
605.025	38.612536
605.242	38.993598
605.460	39.098861
605.677	39.044282
605.894	39.075288
606.112	39.136345
606.329	39.322315
606.546	39.634014
606.764	39.808865
606.981	40.022646
607.198	40.147658
607.415	40.223582
607.633	40.548009
607.850	40.912968
608.067	41.167963
608.284	41.446235
608.501	41.700791
608.718	41.939598
608.935	42.038086
609.153	42.141745
609.370	42.288252
609.587	42.433271
609.804	42.739244
610.021	42.763463
610.238	42.839886
610.455	43.021502
610.672	43.201458
610.889	43.272369
611.106	43.254759
611.323	43.379187
611.540	43.825883
611.756	44.187143
611.973	44.391611
612.190	44.369119
612.407	44.555949
612.624	44.800455
612.841	45.042786
613.057	45.247111
613.274	45.450624
613.491	45.830201
613.708	46.340521
613.925	46.391642
614.141	46.393022
614.358	46.542842
614.575	46.869151
614.791	47.173191
615.008	47.496051
615.225	47.793061
615.441	47.910857
615.658	48.124671
615.874	48.150481
616.091	48.051884
616.307	48.304651
616.524	48.695776
616.740	49.028990
616.957	49.264704
617.173	49.362261
617.390	49.472535
617.606	49.464564
617.823	49.634133
618.039	49.893248
618.256	50.314624
618.472	50.678753
618.688	50.835845
618.905	50.890788
619.121	50.987558
619.337	51.108423
619.554	51.275210
619.770	51.263894
619.986	51.336770
620.202	51.510386
620.419	51.753945
620.635	51.999884
620.851	52.188892
621.067	52.238885
621.283	52.370220
621.499	52.582575
621.716	52.731965
621.932	52.889936
622.148	53.161487
622.364	53.322463
622.580	53.394017
622.796	53.512352
623.012	53.537557
623.228	53.629937
623.444	53.840726
623.660	54.142875
623.876	54.382038
624.092	54.723234
624.308	55.114773
624.524	55.302232
624.740	55.541326
624.955	55.800437
625.171	55.856170
625.387	55.828800
625.603	55.970523
625.819	56.277504
626.034	56.406859
626.250	56.407870
626.466	56.457239
626.682	56.496112
626.897	56.627375
627.113	56.859063
627.329	57.128403
627.544	57.464144
627.760	57.922309
627.976	58.122731
628.191	58.244184
628.407	58.600972
628.623	59.068485
628.838	59.433214
629.054	59.735694
629.269	60.044012
629.485	60.258187
629.700	60.513418
629.916	60.903360
630.131	61.123701
630.347	61.278946
630.562	61.395059
630.777	61.402544
630.993	61.480160
631.208	61.426372
631.424	61.389546
631.639	61.476035
631.854	61.642806
632.070	61.745815
632.285	61.783065
632.500	61.828530
632.715	61.950875
632.931	62.115490
633.146	62.182877
633.361	62.200663
633.576	62.407546
633.791	62.623110
634.007	62.837529
634.222	62.920659
634.437	62.947298
634.652	62.918553
634.867	62.885437
635.082	63.029472
635.297	63.205086
635.512	63.425315
635.727	63.565774
635.942	63.711133
636.157	64.017486
636.372	64.258219
636.587	64.369491
636.802	64.411092
637.017	64.470944
637.232	64.611519
637.447	64.796673
637.662	65.156645
637.876	65.550170
638.091	65.657662
638.306	65.789045
638.521	65.748765
638.736	65.676224
638.951	65.778837
639.165	65.960619
639.380	66.220556
639.595	66.423773
639.809	66.447602
640.024	66.335857
640.239	66.154835
640.453	66.207175
640.668	66.365432
640.883	66.517144
641.097	66.573503
641.312	66.792504
641.526	67.036713
641.741	67.001013
641.955	66.960311
642.170	67.090488
642.384	67.174631
642.599	67.181664
642.813	67.453527
643.028	67.607846
643.242	67.727068
643.457	67.938578
643.671	68.077060
643.885	68.172184
644.100	68.298819
644.314	68.567930
644.528	68.716676
644.743	68.782543
644.957	68.966973
645.171	69.009094
645.386	68.918805
645.600	68.945006
645.814	69.025866
646.028	69.098930
646.242	69.021467
646.457	68.924527
646.671	68.893631
646.885	69.081181
647.099	69.349703
647.313	69.608080
647.527	69.775310
647.741	70.090982
647.955	70.420478
648.169	70.725539
648.383	70.883072
648.597	71.020351
648.811	71.186695
649.025	71.200425
649.239	71.032018
649.453	70.878411
649.667	70.675285
649.881	70.788410
650.095	70.960369
650.309	70.928794
650.523	70.980733
650.737	71.098858
650.950	71.407362
651.164	71.859419
651.378	72.248525
651.592	72.402413
651.805	72.537231
652.019	72.832966
652.233	72.969986
652.447	72.896725
652.660	72.986358
652.874	73.063726
653.088	73.231104
653.301	73.325878
653.515	73.106624
653.728	72.828140
653.942	72.756633
654.156	72.753094
654.369	72.582727
654.583	72.345412
654.796	72.463378
655.010	72.610652
655.223	72.616178
655.437	72.365393
655.650	72.128554
655.863	72.152366
656.077	72.248072
656.290	72.424786
656.504	72.594222
656.717	72.877295
656.930	73.099235
657.144	73.008282
657.357	73.028502
657.570	73.217876
657.783	73.450893
657.997	73.684308
658.210	73.946179
658.423	74.208893
658.636	74.404045
658.849	74.453412
659.063	74.514600
659.276	74.653149
659.489	74.830067
659.702	74.932024
659.915	74.928011
660.128	74.994125
660.341	75.050361
660.554	75.129286
660.767	75.344248
660.980	75.594269
661.193	75.733427
661.406	75.998432
661.619	76.432558
661.832	76.641961
662.045	76.576186
662.258	76.519404
662.471	76.602150
662.684	76.796949
662.897	76.829720
663.110	76.578462
663.322	76.370874
663.535	76.333116
663.748	76.192527
663.961	75.932926
664.174	75.683367
664.386	75.569079
664.599	75.593010
664.812	75.476525
665.024	75.217699
665.237	74.981101
665.450	74.982989
665.662	75.136779
665.875	75.165567
666.088	75.100671
666.300	75.058208
666.513	75.223842
666.725	75.517990
666.938	75.556939
667.150	75.473772
667.363	75.641926
667.575	75.973590
667.788	76.268409
668.000	76.379488
668.213	76.646042
668.425	76.785897
668.638	76.660992
668.850	76.514618
669.062	76.303519
669.275	76.450080
669.487	76.800371
669.699	76.975223
669.912	76.980824
670.124	76.828344
670.336	76.593124
670.548	76.311047
670.761	76.080743
670.973	76.054962
671.185	76.218470
671.397	76.340760
671.609	76.397398
671.822	76.480688
672.034	76.552843
672.246	76.669325
672.458	76.958626
672.670	77.358345
672.882	77.688714
673.094	77.968765
673.306	78.307775
673.518	78.497744
673.730	78.512354
673.942	78.374333
674.154	78.290049
674.366	78.383478
674.578	78.503527
674.790	78.375652
675.002	78.159936
675.214	78.051006
675.425	78.070949
675.637	78.012909
675.849	77.879453
676.061	77.735240
676.273	77.691763
676.484	77.681158
676.696	77.673434
676.908	77.855519
677.120	78.148353
677.331	78.404929
677.543	78.629464
677.755	78.789720
677.966	78.828232
678.178	78.893540
678.389	79.048552
678.601	79.248514
678.813	79.294048
679.024	79.160515
679.236	78.850075
679.447	78.560403
679.659	78.152119
679.870	77.621914
680.082	77.182944
680.293	76.907202
680.505	76.852080
680.716	76.917761
680.927	76.749082
681.139	76.582585
681.350	76.559878
681.562	76.544392
681.773	76.595590
681.984	76.847516
682.196	77.100196
682.407	77.329845
682.618	77.340089
682.829	76.953893
683.041	76.794056
683.252	77.135668
683.463	77.539134
683.674	77.704710
683.885	77.917750
684.097	78.016947
684.308	77.985077
684.519	78.003976
684.730	78.034527
684.941	78.156558
685.152	78.553527
685.363	78.811437
685.574	78.615179
685.785	78.409611
685.996	78.382208
686.207	78.222939
686.418	78.292082
686.629	78.412208
686.840	78.441571
687.051	78.293506
687.262	78.169946
687.473	78.091841
687.684	77.997893
687.894	78.054794
688.105	78.231658
688.316	78.290997
688.527	78.412015
688.738	78.321282
688.948	78.142819
689.159	78.181514
689.370	78.361903
689.580	78.641434
689.791	78.773918
690.002	78.727857
690.212	78.744377
690.423	78.648736
690.634	78.685464
690.844	78.820586
691.055	79.015350
691.266	79.270686
691.476	79.521239
691.687	79.875743
691.897	80.285947
692.108	80.572701
692.318	80.875398
692.529	80.860284
692.739	80.720124
692.949	80.593466
693.160	80.444577
693.370	80.462559
693.581	80.690374
693.791	80.969053
694.001	81.124878
694.212	81.051077
694.422	80.803980
694.632	80.398311
694.843	80.110462
695.053	80.259405
695.263	80.471986
695.473	80.522107
695.683	80.436781
695.894	80.207439
696.104	79.816122
696.314	79.416113
696.524	79.093456
696.734	79.193288
696.944	79.547139
697.154	79.791272
697.365	79.821668
697.575	79.690927
697.785	79.775673
697.995	79.736296
698.205	79.629598
698.415	79.682537
698.625	79.740121
698.834	79.825774
699.044	79.597855
699.254	79.444991
699.464	79.408089
699.674	79.129972
699.884	78.753263
700.094	78.277382
700.304	77.858578
700.513	77.356442
700.723	76.876844
700.933	76.660346
701.143	76.536895
701.353	76.518257
701.562	76.496824
701.772	76.495732
701.982	76.783222
702.191	77.283514
702.401	77.730400
702.611	78.127756
702.820	78.516161
703.030	78.859345
703.239	79.023994
703.449	78.908269
703.659	78.803326
703.868	78.544937
704.078	78.313117
704.287	78.041278
704.497	77.672336
704.706	77.244233
704.916	76.825778
705.125	76.744963
705.334	76.614936
705.544	76.451363
705.753	76.567333
705.962	76.620629
706.172	76.652846
706.381	76.856639
706.590	77.034899
706.800	77.228955
707.009	77.550590
707.218	77.939912
707.428	77.951610
707.637	77.868527
707.846	77.895908
708.055	77.967008
708.264	78.206533
708.474	78.492419
708.683	78.446595
708.892	78.279147
709.101	78.220317
709.310	78.150792
709.519	77.939113
709.728	77.858276
709.937	77.855092
710.146	77.812361
710.355	77.760050
710.564	77.615858
710.773	77.411526
710.982	77.392852
711.191	77.364910
711.400	77.174490
711.609	76.932399
711.818	77.033349
712.027	77.237291
712.235	77.468675
712.444	77.742103
712.653	77.902482
712.862	78.097765
713.071	78.390189
713.279	78.522374
713.488	78.481170
713.697	78.374840
713.906	78.485729
714.114	78.409762
714.323	78.243644
714.532	77.942620
714.740	77.414850
714.949	77.161631
715.157	77.071806
715.366	76.797832
715.575	76.612547
715.783	76.527482
715.992	76.286363
716.200	75.823505
716.409	75.331583
716.617	74.851527
716.826	74.657261
717.034	74.859732
717.242	74.923125
717.451	74.699871
717.659	74.592307
717.868	74.633176
718.076	74.983675
718.284	75.525222
718.493	75.979924
718.701	76.374533
718.909	76.660531
719.118	76.695030
719.326	76.473388
719.534	76.296838
719.742	76.249537
719.951	76.357237
720.159	76.364256
720.367	76.044075
720.575	75.573428
720.783	75.329953
720.991	75.414956
721.199	75.547697
721.408	75.678621
721.616	75.825213
721.824	75.874121
722.032	75.958599
722.240	75.906946
722.448	75.838012
722.656	75.878442
722.864	76.097381
723.072	76.278930
723.280	76.096738
723.487	75.896185
723.695	75.576843
723.903	75.315478
724.111	75.163913
724.319	75.086217
724.527	74.978082
724.735	74.875158
724.942	74.772729
725.150	74.567039
725.358	74.232322
725.566	74.176717
725.773	74.308944
725.981	74.432929
726.189	74.390665
726.396	74.238618
726.604	74.177591
726.812	74.270884
727.019	74.300455
727.227	74.172487
727.435	74.191394
727.642	74.292508
727.850	74.216114
728.057	73.912173
728.265	73.686429
728.472	73.523867
728.680	73.348496
728.887	73.154725
729.095	72.944649
729.302	72.715047
729.509	72.577812
729.717	72.507668
729.924	72.564249
730.132	72.889701
730.339	73.181516
730.546	73.449817
730.753	73.621823
730.961	73.662294
731.168	73.466436
731.375	73.133965
731.583	72.793163
731.790	72.546885
731.997	72.343504
732.204	72.121717
732.411	71.730491
732.618	71.448881
732.826	71.110823
733.033	70.797812
733.240	70.516965
733.447	70.326577
733.654	70.398295
733.861	70.574649
734.068	70.674205
734.275	70.740620
734.482	70.696408
734.689	70.619084
734.896	70.510045
735.103	70.640590
735.310	70.934138
735.517	71.167206
735.724	71.176372
735.931	70.846687
736.137	70.620302
736.344	70.495226
736.551	70.259348
736.758	70.037680
736.965	69.790614
737.171	69.580552
737.378	69.391927
737.585	68.968766
737.792	68.552260
737.998	68.482364
738.205	68.647352
738.412	68.743172
738.618	68.756171
738.825	68.724874
739.032	68.692700
739.238	68.538095
739.445	68.391204
739.651	68.058972
739.858	67.922139
740.064	67.967621
740.271	67.930932
740.477	67.700404
740.684	67.331497
740.890	67.027790
741.097	66.758195
741.303	66.381061
741.510	66.098100
741.716	65.918308
741.922	65.882200
742.129	65.972213
742.335	65.988979
742.541	65.841029
742.748	65.652227
742.954	65.593962
743.160	65.588243
743.366	65.508306
743.573	65.384872
743.779	65.221921
743.985	64.930214
744.191	64.626645
744.397	64.225524
744.604	63.791237
744.810	63.583919
745.016	63.483706
745.222	63.273327
745.428	62.887333
745.634	62.575952
745.840	62.388272
746.046	62.237574
746.252	62.228971
746.458	62.326037
746.664	62.417636
746.870	62.648330
747.076	62.701059
747.282	62.706615
747.488	62.629712
747.694	62.535112
747.900	62.568515
748.105	62.602133
748.311	62.602228
748.517	62.504249
748.723	62.281510
748.929	61.843112
749.134	61.205229
749.340	60.688300
749.546	60.383841
749.752	60.266820
749.957	60.352913
750.163	60.230872
750.369	59.979589
750.574	59.870907
750.780	59.964687
750.985	59.986927
751.191	59.950754
751.397	59.933101
751.602	59.958326
751.808	59.731537
752.013	59.390455
752.219	58.905812
752.424	58.567490
752.630	58.576776
752.835	58.395358
753.041	57.966316
753.246	57.570050
753.451	57.301944
753.657	57.115604
753.862	56.842513
754.067	56.469192
754.273	56.122095
754.478	55.946164
754.683	55.792433
754.889	55.430733
755.094	55.260704
755.299	55.042057
755.504	54.766393
755.710	54.622999
755.915	54.521722
756.120	54.260669
756.325	54.131944
756.530	54.091150
756.735	53.923708
756.940	53.795404
757.146	53.610509
757.351	53.231686
757.556	52.932260
757.761	52.590936
757.966	52.129427
758.171	51.671072
758.376	51.481247
758.581	51.353103
758.786	51.144748
758.990	50.856130
759.195	50.422146
759.400	50.021248
759.605	49.712760
759.810	49.415355
760.015	49.190933
760.220	49.167893
760.424	49.084228
760.629	48.782861
760.834	48.649592
761.039	48.617188
761.244	48.553004
761.448	48.264619
761.653	48.053699
761.858	47.951087
762.062	47.860898
762.267	47.816709
762.472	47.615247
762.676	47.208733
762.881	46.772220
763.085	46.078744
763.290	45.314236
763.494	44.678722
763.699	44.305891
763.903	43.826395
764.108	43.304078
764.312	42.879734
764.517	42.375395
764.721	41.886650
764.926	41.624453
765.130	41.511242
765.335	41.427142
765.539	41.264925
765.743	41.061279
765.948	40.880621
766.152	40.774644
766.356	40.574518
766.560	40.231511
766.765	39.984868
766.969	39.741624
767.173	39.398351
767.377	39.025568
767.582	38.758862
767.786	38.628865
767.990	38.500626
768.194	38.266055
768.398	37.926383
768.602	37.505656
768.806	37.202934
769.010	36.924574
769.215	36.619052
769.419	36.343643
769.623	36.023047
769.827	35.652351
770.031	35.138594
770.234	34.610697
770.438	34.139747
770.642	33.799394
770.846	33.646013
771.050	33.343318
771.254	32.962742
771.458	32.578783
771.662	32.256581
771.866	31.976167
772.069	31.656897
772.273	31.446628
772.477	31.084565
772.681	30.729542
772.885	30.236518
773.088	29.648112
773.292	29.072655
773.496	28.606928
773.699	28.190071
773.903	27.748663
774.107	27.230028
774.310	26.644077
774.514	26.110105
774.717	25.841518
774.921	25.524381
775.124	25.228798
775.328	24.999442
775.531	24.757699
775.735	24.393270
775.938	24.101257
776.142	23.855702
776.345	23.594587
776.549	23.329612
776.752	23.032571
776.956	22.695127
777.159	22.287637
777.362	21.890042
777.566	21.417040
777.769	21.119918
777.972	20.872709
778.176	20.529678
778.379	20.163885
778.582	19.904634
778.785	19.627876
778.989	19.394801
779.192	19.064831
779.395	18.765697
779.598	18.516260
779.801	18.293587
780.004	17.896839
780.207	17.560959
780.411	17.306657
780.614	17.027068
780.817	16.679760
781.020	16.394753
781.223	16.059682
781.426	15.777471
781.629	15.571617
781.832	15.296270
782.035	15.054049
782.238	14.963311
782.440	14.780287
782.643	14.518437
782.846	14.292063
783.049	14.098345
783.252	13.947673
783.455	13.844767
783.658	13.686854
783.860	13.457216
784.063	13.269428
784.266	13.010709
784.469	12.744949
784.671	12.567796
784.874	12.407837
785.077	12.123699
785.279	11.881901
785.482	11.785006
785.685	11.639684
785.887	11.418006
786.090	11.289524
786.293	11.323006
786.495	11.404582
786.698	11.401419
786.900	11.232215
787.103	11.086969
787.305	11.009739
787.508	10.950993
787.710	10.784463
787.913	10.644677
788.115	10.495072
788.317	10.312597
788.520	9.955229
788.722	9.524447
788.924	9.284930
789.127	9.223114
789.329	9.114722
789.531	9.044898
789.734	8.923833
789.936	8.831552
790.138	8.637465
790.340	8.611391
790.543	8.656711
790.745	8.717353
790.947	8.773816
791.149	8.685550
791.351	8.660656
791.553	8.718270
791.756	8.725578
791.958	8.816408
792.160	8.822597
792.362	8.904978
792.564	9.002806
792.766	9.017884
792.968	9.063765
793.170	9.275726
793.372	9.407114
793.574	9.394122
793.776	9.378465
793.978	9.455141
794.180	9.430590
794.381	9.390324
794.583	9.465068
794.785	9.563041
794.987	9.660934
795.189	9.739685
795.391	9.787469
795.592	10.068092
795.794	10.333205
795.996	10.503026
796.198	10.588111
796.399	10.690447
796.601	10.928941
796.803	11.201137
797.004	11.255366
797.206	11.335134
797.407	11.574098
797.609	11.733454
797.811	11.787525
798.012	11.968675
798.214	12.087108
798.415	12.275583
798.617	12.369511
798.818	12.661824
799.020	12.804665
799.221	13.031091
799.423	13.302707
799.624	13.472221
799.826	13.806248
800.027	14.057882
800.228	14.211153
800.430	14.463522
800.631	14.683315
800.832	15.070896
801.034	15.190215
801.235	15.286005
801.436	15.490495
801.637	15.624707
801.839	15.750985
802.040	15.837870
802.241	15.907687
802.442	16.010513
802.643	16.265974
802.844	16.395371
803.046	16.583641
803.247	16.798088
803.448	17.028464
803.649	17.267957
803.850	17.679326
804.051	17.955090
804.252	18.223988
804.453	18.522700
804.654	18.854469
804.855	19.081810
805.056	19.552013
805.257	19.861256
805.458	20.216279
805.659	20.645967
805.859	21.067458
806.060	21.276452
806.261	21.683222
806.462	21.924337
806.663	22.110017
806.864	22.401579
807.064	22.696819
807.265	22.899503
807.466	23.119560
807.667	23.291981
807.867	23.489828
808.068	23.713192
808.269	24.056683
808.469	24.338467
808.670	24.670879
808.870	25.133140
809.071	25.440591
809.272	25.674403
809.472	25.922609
809.673	26.244178
809.873	26.505385
810.074	26.786015
810.274	27.007434
810.475	27.193778
810.675	27.334687
810.876	27.504998
811.076	27.697932
811.276	27.764992
811.477	27.953027
811.677	28.079122
811.878	28.177841
812.078	28.474936
812.278	28.815319
812.479	29.143984
812.679	29.308198
812.879	29.432082
813.079	29.671442
813.280	29.786246
813.480	29.959999
813.680	30.032132
813.880	30.286891
814.080	30.462781
814.280	30.560572
814.480	30.574505
814.681	30.647650
814.881	30.901126
815.081	31.225198
815.281	31.504740
815.481	31.810315
815.681	32.313157
815.881	32.851636
816.081	33.302652
816.281	33.846077
816.481	34.395421
816.681	34.751736
816.880	35.030223
817.080	35.307462
817.280	35.616025
817.480	35.943706
817.680	36.369840
817.880	36.647758
818.080	36.784962
818.279	36.841616
818.479	36.906304
818.679	37.002280
818.879	37.284924
819.078	37.576073
819.278	37.926132
819.478	38.170101
819.677	38.348908
819.877	38.628193
820.077	38.998240
820.276	39.554126
820.476	40.103414
820.675	40.490052
820.875	40.737104
821.074	40.837723
821.274	41.059623
821.473	41.269291
821.673	41.735744
821.872	42.246215
822.072	42.476672
822.271	42.618968
822.471	42.680111
822.670	42.585357
822.869	42.663925
823.069	42.726939
823.268	42.976141
823.467	43.188549
823.667	43.495046
823.866	43.441210
824.065	43.515810
824.265	43.735001
824.464	44.156056
824.663	44.664721
824.862	45.223668
825.061	45.570941
825.261	45.957207
825.460	46.259217
825.659	46.445833
825.858	46.462654
826.057	46.753265
826.256	46.820922
826.455	46.985343
826.654	47.075583
826.853	47.072206
827.052	47.233964
827.251	47.562392
827.450	47.919782
