Date	2025年07月03日木曜日 10時00分48秒
Spectrometers	SR401765
ダーク	使用
リファレンス	使用
積分時間[msec]	300
平均回数	1
ｽﾑｰｼﾞﾝｸﾞ	5
Electrical Dark	USE
ピクセル数	3648
計測モード	反射率
保存開始波長[nm]	598.495
保存終了波長[nm]	1274.802
保存ﾋﾟｯﾁ波長[nm]	全波長

>>>>>>>>>> Data Start <<<<<<<<<<<<
598.495	0.000000
598.713	0.000000
598.931	0.000000
599.148	0.000000
599.366	64.234539
599.584	60.406736
599.802	85.377950
600.020	0.000000
600.238	0.000000
600.455	0.000000
600.673	0.000000
600.891	17.807217
601.109	20.074741
601.326	21.231052
601.544	21.699220
601.762	21.981603
601.979	21.927529
602.197	22.199885
602.415	22.495065
602.632	22.820908
602.850	22.956153
603.067	22.934931
603.285	23.022423
603.502	23.182455
603.720	23.253647
603.938	23.269400
604.155	23.428151
604.372	23.617582
604.590	23.734732
604.807	23.768052
605.025	23.899425
605.242	24.154412
605.460	24.385623
605.677	24.479306
605.894	24.680597
606.112	24.907052
606.329	25.158146
606.546	25.177456
606.764	25.310237
606.981	25.344553
607.198	25.281970
607.415	25.330687
607.633	25.315103
607.850	25.400191
608.067	25.735438
608.284	25.947747
608.501	26.103364
608.718	26.294757
608.935	26.538820
609.153	26.837725
609.370	27.169757
609.587	27.675767
609.804	27.889816
610.021	28.078261
610.238	28.260172
610.455	28.364948
610.672	28.464342
610.889	28.591573
611.106	28.789200
611.323	29.079948
611.540	29.159838
611.756	29.317276
611.973	29.411209
612.190	29.624429
612.407	29.796433
612.624	30.012947
612.841	30.384783
613.057	30.844979
613.274	31.183694
613.491	31.331130
613.708	31.519565
613.925	31.763371
614.141	31.943061
614.358	32.242457
614.575	32.532963
614.791	32.924310
615.008	33.260262
615.225	33.363014
615.441	33.480893
615.658	33.543137
615.874	33.510379
616.091	33.482673
616.307	33.606368
616.524	33.724158
616.740	33.663533
616.957	33.590930
617.173	33.649563
617.390	33.807671
617.606	33.998689
617.823	34.172478
618.039	34.466598
618.256	34.896103
618.472	35.204166
618.688	35.496267
618.905	35.831329
619.121	36.375941
619.337	37.008258
619.554	37.397453
619.770	37.577847
619.986	37.780923
620.202	37.811468
620.419	37.820756
620.635	37.927357
620.851	38.161735
621.067	38.420478
621.283	38.721026
621.499	38.886812
621.716	38.917123
621.932	38.979251
622.148	39.139830
622.364	39.349360
622.580	39.831638
622.796	40.356986
623.012	40.730436
623.228	41.159318
623.444	41.393710
623.660	41.487498
623.876	41.783100
624.092	42.122380
624.308	42.364882
624.524	42.815022
624.740	43.110553
624.955	43.092886
625.171	43.299150
625.387	43.598716
625.603	43.732972
625.819	43.965986
626.034	44.199587
626.250	43.983993
626.466	43.846575
626.682	44.144882
626.897	44.338808
627.113	44.508636
627.329	44.861165
627.544	45.086380
627.760	45.304050
627.976	45.530966
628.191	45.637463
628.407	45.839191
628.623	46.520670
628.838	47.075740
629.054	47.194792
629.269	47.295870
629.485	47.638937
629.700	48.048901
629.916	48.138882
630.131	48.066176
630.347	48.054291
630.562	48.121792
630.777	48.257954
630.993	48.248540
631.208	48.335971
631.424	48.601502
631.639	48.758535
631.854	48.772704
632.070	48.697138
632.285	48.896475
632.500	49.366629
632.715	49.742904
632.931	50.206429
633.146	50.509826
633.361	50.555190
633.576	50.554844
633.791	50.457703
634.007	50.566321
634.222	51.012754
634.437	51.541524
634.652	52.081501
634.867	52.449289
635.082	52.745023
635.297	52.775487
635.512	52.798819
635.727	53.162440
635.942	53.601543
636.157	54.101027
636.372	54.426320
636.587	54.421127
636.802	54.370572
637.017	54.274496
637.232	54.234218
637.447	54.468062
637.662	54.927562
637.876	55.358528
638.091	55.647331
638.306	55.979777
638.521	56.245709
638.736	56.404504
638.951	56.516233
639.165	56.646346
639.380	56.790840
639.595	56.886289
639.809	56.830655
640.024	56.848960
640.239	57.077506
640.453	57.230560
640.668	57.297799
640.883	57.523172
641.097	57.827534
641.312	58.219864
641.526	58.483039
641.741	58.647900
641.955	58.795221
642.170	58.955118
642.384	59.011072
642.599	59.023294
642.813	59.021057
643.028	59.067890
643.242	59.041288
643.457	59.171878
643.671	59.346556
643.885	59.517551
644.100	59.934207
644.314	60.431816
644.528	60.839469
644.743	61.305271
644.957	61.669276
645.171	62.125278
645.386	62.432444
645.600	62.674647
645.814	62.842347
646.028	63.084742
646.242	63.534377
646.457	63.584306
646.671	63.606141
646.885	63.682520
647.099	63.502689
647.313	63.427865
647.527	63.472838
647.741	63.556431
647.955	63.849357
648.169	63.843354
648.383	63.300847
648.597	62.608522
648.811	62.283289
649.025	61.932940
649.239	61.750485
649.453	61.903650
649.667	61.954522
649.881	61.901003
650.095	61.749665
650.309	61.454961
650.523	61.534436
650.737	62.115687
650.950	62.754984
651.164	63.266192
651.378	63.751155
651.592	64.065250
651.805	64.242499
652.019	64.413544
652.233	64.507433
652.447	64.681599
652.660	64.879445
652.874	65.024533
653.088	64.849431
653.301	64.697805
653.515	64.672907
653.728	64.717040
653.942	64.998808
654.156	65.266032
654.369	65.559977
654.583	65.985231
654.796	66.560251
655.010	67.011864
655.223	67.168301
655.437	67.390277
655.650	67.589316
655.863	67.556091
656.077	67.569551
656.290	67.393442
656.504	67.283581
656.717	67.236643
656.930	67.210694
657.144	67.082701
657.357	67.020444
657.570	67.170823
657.783	67.400893
657.997	67.673883
658.210	67.951475
658.423	68.158618
658.636	68.220898
658.849	68.207230
659.063	68.205335
659.276	68.217099
659.489	68.411160
659.702	68.519964
659.915	68.545849
660.128	68.695379
660.341	68.859459
660.554	68.940695
660.767	68.845339
660.980	68.891628
661.193	69.084051
661.406	69.307940
661.619	69.323711
661.832	69.023109
662.045	68.877552
662.258	68.965972
662.471	68.945872
662.684	68.759378
662.897	68.840323
663.110	69.022605
663.322	69.037698
663.535	69.069117
663.748	69.146934
663.961	69.461801
664.174	69.799669
664.386	69.775138
664.599	69.605104
664.812	69.672894
665.024	69.932870
665.237	70.072522
665.450	70.394873
665.662	70.941321
665.875	71.341951
666.088	71.596866
666.300	71.688502
666.513	72.070936
666.725	72.808947
666.938	73.327638
667.150	73.359891
667.363	73.347560
667.575	73.453031
667.788	73.386156
668.000	73.167102
668.213	73.011310
668.425	72.791106
668.638	72.626500
668.850	72.400041
669.062	72.043115
669.275	71.928917
669.487	72.041778
669.699	72.137841
669.912	72.079013
670.124	72.024513
670.336	72.040248
670.548	71.883961
670.761	71.868647
670.973	71.886555
671.185	71.712470
671.397	71.627540
671.609	71.608219
671.822	71.801435
672.034	71.981572
672.246	72.201092
672.458	72.460693
672.670	72.570840
672.882	72.625255
673.094	72.579550
673.306	72.711692
673.518	73.035389
673.730	73.361558
673.942	73.790893
674.154	73.946522
674.366	73.731161
674.578	73.388917
674.790	73.237688
675.002	73.368994
675.214	73.468527
675.425	73.478877
675.637	73.388678
675.849	73.321808
676.061	73.373216
676.273	73.188375
676.484	72.967708
676.696	73.077812
676.908	73.424063
677.120	73.590893
677.331	73.703164
677.543	74.072186
677.755	74.719870
677.966	75.162376
678.178	75.274273
678.389	75.201984
678.601	75.235490
678.813	75.310107
679.024	75.286045
679.236	75.174074
679.447	75.116044
679.659	75.059189
679.870	74.987441
680.082	74.734126
680.293	74.595286
680.505	74.727893
680.716	74.699436
680.927	74.664626
681.139	74.739146
681.350	74.894438
681.562	74.993292
681.773	74.960357
681.984	74.553010
682.196	73.841835
682.407	73.216233
682.618	72.749807
682.829	72.370770
683.041	72.357327
683.252	72.458556
683.463	72.739602
683.674	73.141098
683.885	73.372645
684.097	73.552348
684.308	73.870510
684.519	74.313882
684.730	74.815747
684.941	75.281222
685.152	75.711922
685.363	76.000443
685.574	76.057593
685.785	75.707626
685.996	75.223984
686.207	75.114796
686.418	75.202406
686.629	75.457860
686.840	75.853237
687.051	76.006984
687.262	75.929927
687.473	75.691936
687.684	75.469732
687.894	75.414906
688.105	75.383052
688.316	75.276733
688.527	75.008890
688.738	74.693584
688.948	74.318252
689.159	73.832961
689.370	73.538776
689.580	73.191926
689.791	72.791984
690.002	72.436711
690.212	72.018745
690.423	72.041468
690.634	72.269002
690.844	72.402975
691.055	72.599135
691.266	73.049207
691.476	73.664738
691.687	74.135675
691.897	74.460962
692.108	74.880369
692.318	75.250279
692.529	75.598178
692.739	75.715155
692.949	75.879729
693.160	76.114086
693.370	76.122619
693.581	76.065849
693.791	76.089158
694.001	76.178050
694.212	76.363959
694.422	76.469977
694.632	76.393754
694.843	76.092692
695.053	75.831453
695.263	75.538732
695.473	75.442950
695.683	75.781428
695.894	75.971042
696.104	75.878247
696.314	75.797937
696.524	75.839193
696.734	75.709337
696.944	75.781625
697.154	76.190635
697.365	76.387693
697.575	76.525045
697.785	76.671016
697.995	76.461748
698.205	76.417043
698.415	76.627495
698.625	76.670768
698.834	76.796915
699.044	77.228943
699.254	77.502512
699.464	77.773585
699.674	78.230337
699.884	78.364370
700.094	78.327227
700.304	78.283429
700.513	77.857434
700.723	77.059020
700.933	76.390871
701.143	75.722215
701.353	75.140731
701.562	74.679405
701.772	74.026163
701.982	73.458319
702.191	73.175688
702.401	72.878410
702.611	72.765941
702.820	72.933456
703.030	73.379437
703.239	73.795304
703.449	74.176134
703.659	74.602151
703.868	75.189318
704.078	75.924582
704.287	76.430511
704.497	76.601522
704.706	76.607369
704.916	76.473058
705.125	76.333181
705.334	76.305216
705.544	76.433879
705.753	76.574720
705.962	76.399504
706.172	75.970020
706.381	75.674858
706.590	75.499325
706.800	75.659552
707.009	76.005097
707.218	76.278222
707.428	76.312494
707.637	75.997508
707.846	75.793639
708.055	76.117370
708.264	76.848466
708.474	77.637933
708.683	78.106798
708.892	78.390475
709.101	78.410358
709.310	78.260236
709.519	78.139244
709.728	78.189600
709.937	78.809667
710.146	79.366869
710.355	79.165302
710.564	78.381045
710.773	77.543978
710.982	76.827989
711.191	76.380902
711.400	76.159841
711.609	76.249856
711.818	76.477758
712.027	76.671992
712.235	76.604348
712.444	76.407295
712.653	76.412871
712.862	76.721370
713.071	76.857748
713.279	76.894859
713.488	76.859062
713.697	76.899571
713.906	76.810526
714.114	76.667053
714.323	76.472276
714.532	76.191014
714.740	75.890091
714.949	75.621810
715.157	75.580887
715.366	75.734127
715.575	75.811059
715.783	75.980968
715.992	76.135594
716.200	76.017828
716.409	75.683552
716.617	75.261699
716.826	74.914462
717.034	74.669868
717.242	74.563680
717.451	74.564888
717.659	74.677168
717.868	74.797815
718.076	74.710133
718.284	74.421274
718.493	74.274028
718.701	74.203649
718.909	74.542415
719.118	74.920589
719.326	75.088541
719.534	75.084360
719.742	74.904648
719.951	74.556580
720.159	74.296790
720.367	74.258963
720.575	74.310168
720.783	74.382681
720.991	74.496074
721.199	74.333561
721.408	74.161153
721.616	74.276613
721.824	74.521055
722.032	74.446170
722.240	74.356781
722.448	74.477431
722.656	74.597952
722.864	74.614774
723.072	74.514134
723.280	74.200865
723.487	73.740215
723.695	73.364752
723.903	72.994372
724.111	72.551188
724.319	72.339829
724.527	72.466237
724.735	72.795977
724.942	72.903367
725.150	72.866843
725.358	72.803777
725.566	73.048392
725.773	73.580171
725.981	73.994964
726.189	74.155863
726.396	74.279211
726.604	74.332347
726.812	74.167511
727.019	73.606021
727.227	73.006596
727.435	72.656922
727.642	72.771605
727.850	72.931263
728.057	72.779555
728.265	72.450177
728.472	72.307847
728.680	72.175242
728.887	71.969159
729.095	71.733627
729.302	71.689466
729.509	71.781940
729.717	72.043695
729.924	72.112310
730.132	71.970287
730.339	71.958887
730.546	72.120604
730.753	72.128496
730.961	72.086558
731.168	72.110285
731.375	72.035359
731.583	71.836508
731.790	71.838392
731.997	71.914862
732.204	71.973708
732.411	71.947992
732.618	71.912283
732.826	71.772908
733.033	71.828042
733.240	72.037097
733.447	72.200010
733.654	72.373628
733.861	72.581306
734.068	72.534873
734.275	72.207422
734.482	71.827515
734.689	71.664050
734.896	71.597005
735.103	71.605416
735.310	71.430749
735.517	71.178046
735.724	71.171853
735.931	71.581821
736.137	71.976677
736.344	72.155144
736.551	72.129567
736.758	71.975443
736.965	71.848735
737.171	71.863040
737.378	71.885623
737.585	71.908280
737.792	72.087387
737.998	72.337269
738.205	72.187522
738.412	71.660855
738.618	71.309885
738.825	71.303919
739.032	71.472711
739.238	71.739260
739.445	71.900101
739.651	71.774493
739.858	71.448876
740.064	70.791943
740.271	70.011561
740.477	69.432027
740.684	69.291516
740.890	69.094206
741.097	68.587200
741.303	68.029567
741.510	67.627854
741.716	67.248548
741.922	66.983807
742.129	66.959167
742.335	67.146109
742.541	67.256171
742.748	67.238881
742.954	67.309855
743.160	67.449305
743.366	67.633512
743.573	67.806550
743.779	67.845715
743.985	67.947394
744.191	68.066877
744.397	68.197548
744.604	68.193725
744.810	68.042036
745.016	68.203798
745.222	68.352861
745.428	68.516928
745.634	68.798354
745.840	69.064376
746.046	69.154661
746.252	69.037938
746.458	68.897551
746.664	68.701968
746.870	68.522364
747.076	68.189952
747.282	67.650883
747.488	67.214113
747.694	66.947172
747.900	66.932784
748.105	67.054334
748.311	66.979078
748.517	66.844366
748.723	66.850354
748.929	66.705722
749.134	66.521209
749.340	66.485357
749.546	66.465429
749.752	66.384014
749.957	66.144540
750.163	65.700540
750.369	65.083706
750.574	64.716138
750.780	64.513763
750.985	64.235496
751.191	64.224363
751.397	64.345507
751.602	64.571317
751.808	64.693442
752.013	64.619802
752.219	64.443291
752.424	64.146318
752.630	63.771604
752.835	63.514013
753.041	63.438312
753.246	63.458574
753.451	63.348601
753.657	63.317463
753.862	63.277095
754.067	63.083574
754.273	62.985778
754.478	63.070262
754.683	63.093837
754.889	63.178019
755.094	63.110286
755.299	62.752528
755.504	62.312525
755.710	62.037957
755.915	61.635073
756.120	61.027393
756.325	60.496445
756.530	59.774925
756.735	59.009663
756.940	58.496004
757.146	58.244991
757.351	58.188242
757.556	58.303426
757.761	58.535225
757.966	58.745439
758.171	58.838459
758.376	58.957181
758.581	59.045698
758.786	59.345521
758.990	59.596493
759.195	59.745114
759.400	59.705243
759.605	59.447876
759.810	59.113839
760.015	58.825833
760.220	58.390768
760.424	58.066333
760.629	57.719451
760.834	57.421682
761.039	57.115048
761.244	56.942209
761.448	56.779754
761.653	56.520402
761.858	56.184115
762.062	55.777471
762.267	55.297190
762.472	54.917725
762.676	54.725181
762.881	54.844790
763.085	55.108062
763.290	55.167598
763.494	54.956424
763.699	54.638905
763.903	54.404530
764.108	54.303457
764.312	54.365469
764.517	54.415253
764.721	54.376125
764.926	54.090706
765.130	53.518447
765.335	53.000556
765.539	52.620234
765.743	52.293642
765.948	52.010954
766.152	51.720054
766.356	51.330679
766.560	50.944588
766.765	50.777245
766.969	50.620627
767.173	50.346723
767.377	50.313114
767.582	50.357701
767.786	50.209639
767.990	50.060150
768.194	50.117782
768.398	50.111076
768.602	50.068742
768.806	49.910191
769.010	49.452356
769.215	48.952997
769.419	48.730248
769.623	48.573063
769.827	48.151938
770.031	47.708301
770.234	47.214755
770.438	46.414859
770.642	45.862173
770.846	45.529937
771.050	45.024244
771.254	44.729988
771.458	44.635697
771.662	44.430239
771.866	44.095883
772.069	43.838356
772.273	43.724232
772.477	43.543099
772.681	43.530373
772.885	43.366656
773.088	42.962906
773.292	42.736399
773.496	42.394685
773.699	42.048191
773.903	41.837329
774.107	41.527667
774.310	41.102705
774.514	40.610107
774.717	40.409889
774.921	40.295367
775.124	40.268724
775.328	40.388444
775.531	40.484481
775.735	40.419728
775.938	40.092051
776.142	39.486933
776.345	39.010918
776.549	38.658626
776.752	38.377083
776.956	38.006383
777.159	37.439571
777.362	36.739184
777.566	36.027569
777.769	35.413689
777.972	34.852576
778.176	34.457540
778.379	34.270977
778.582	34.134110
778.785	33.899465
778.989	33.661464
779.192	33.435108
779.395	33.387762
779.598	33.322889
779.801	33.128527
780.004	32.706070
780.207	32.384169
780.411	32.118961
780.614	31.915162
780.817	31.534031
781.020	31.113023
781.223	30.621508
781.426	30.137745
781.629	29.615219
781.832	29.191580
782.035	28.743279
782.238	28.434108
782.440	28.146265
782.643	27.899307
782.846	27.544569
783.049	27.127794
783.252	26.773718
783.455	26.587848
783.658	26.325108
783.860	25.946339
784.063	25.567607
784.266	25.349827
784.469	25.126969
784.671	24.933458
784.874	24.654329
785.077	24.416662
785.279	24.347886
785.482	24.286693
785.685	24.157345
785.887	24.051671
786.090	23.924910
786.293	23.689289
786.495	23.408824
786.698	23.010874
786.900	22.535228
787.103	22.148337
787.305	21.690492
787.508	21.265819
787.710	20.786956
787.913	20.289192
788.115	19.808171
788.317	19.394040
788.520	19.108776
788.722	18.879198
788.924	18.693086
789.127	18.577896
789.329	18.412167
789.531	18.247548
789.734	18.148770
789.936	18.107561
790.138	17.912282
790.340	17.729778
790.543	17.534600
790.745	17.258208
790.947	16.942589
791.149	16.716587
791.351	16.376201
791.553	15.996097
791.756	15.739949
791.958	15.412810
792.160	15.098437
792.362	14.910266
792.564	14.690375
792.766	14.516334
792.968	14.360734
793.170	14.245214
793.372	14.098997
793.574	13.906288
793.776	13.716396
793.978	13.462224
794.180	13.240226
794.381	13.107706
794.583	13.069677
794.785	12.980396
794.987	12.882548
795.189	12.798459
795.391	12.686763
795.592	12.521905
795.794	12.394127
795.996	12.355932
796.198	12.320867
796.399	12.291075
796.601	12.124462
796.803	11.945948
797.004	11.869610
797.206	11.833330
797.407	11.753216
797.609	11.656182
797.811	11.609348
798.012	11.589229
798.214	11.519472
798.415	11.437685
798.617	11.290059
798.818	11.253934
799.020	11.265101
799.221	11.125892
799.423	10.981032
799.624	10.895416
799.826	10.734460
800.027	10.718606
800.228	10.824501
800.430	10.912052
800.631	11.083221
800.832	11.174012
801.034	11.210143
801.235	11.253245
801.436	11.360577
801.637	11.513602
801.839	11.708265
802.040	11.900905
802.241	11.998908
802.442	11.953200
802.643	11.883672
802.844	11.725736
803.046	11.719503
803.247	11.673666
803.448	11.605034
803.649	11.687830
803.850	11.748846
804.051	11.783487
804.252	11.941296
804.453	11.971243
804.654	12.045605
804.855	12.188454
805.056	12.334067
805.257	12.498280
805.458	12.819770
805.659	13.030110
805.859	13.076547
806.060	13.128778
806.261	13.238704
806.462	13.137613
806.663	13.154160
806.864	13.304903
807.064	13.417653
807.265	13.640641
807.466	13.824312
807.667	13.875228
807.867	14.002917
808.068	14.355918
808.269	14.679177
808.469	14.914791
808.670	15.339387
808.870	15.675518
809.071	15.832273
809.272	15.987152
809.472	16.094559
809.673	16.176114
809.873	16.330967
810.074	16.495738
810.274	16.495720
810.475	16.565689
810.675	16.696819
810.876	16.749255
811.076	16.897810
811.276	17.192358
811.477	17.500865
811.677	17.722443
811.878	17.879760
812.078	18.105392
812.278	18.309253
812.479	18.568118
812.679	18.753094
812.879	18.996314
813.079	19.330060
813.280	19.567805
813.480	19.711235
813.680	19.926240
813.880	20.154669
814.080	20.494444
814.280	20.820215
814.480	21.114844
814.681	21.430911
814.881	21.744506
815.081	22.047358
815.281	22.471401
815.481	22.901347
815.681	23.319707
815.881	23.603122
816.081	23.832327
816.281	23.870744
816.481	24.027494
816.681	24.260541
816.880	24.537047
817.080	24.851101
817.280	25.085128
817.480	25.234641
817.680	25.407268
817.880	25.589684
818.080	25.770260
818.279	26.040193
818.479	26.418589
818.679	26.703687
818.879	26.954127
819.078	27.080802
819.278	27.074143
819.478	27.116782
819.677	27.204023
819.877	27.475108
820.077	27.849779
820.276	28.100418
820.476	28.400907
820.675	28.901804
820.875	29.461732
821.074	29.986018
821.274	30.332681
821.473	30.645705
821.673	30.927961
821.872	31.228360
822.072	31.409271
822.271	31.474454
822.471	31.633426
822.670	31.786385
822.869	31.859870
823.069	31.857190
823.268	31.912274
823.467	32.196885
823.667	32.603375
823.866	33.105460
824.065	33.479779
824.265	33.732992
824.464	34.060083
824.663	34.498167
824.862	34.879307
825.061	35.304877
825.261	35.529126
825.460	35.632644
825.659	35.697986
825.858	35.709746
826.057	35.615286
826.256	35.603948
826.455	35.731705
826.654	35.909675
826.853	36.115375
827.052	36.247592
827.251	36.269194
