Date	2025年07月03日木曜日 10時02分29秒
Spectrometers	SR401765
ダーク	使用
リファレンス	使用
積分時間[msec]	300
平均回数	1
ｽﾑｰｼﾞﾝｸﾞ	5
Electrical Dark	USE
ピクセル数	3648
計測モード	反射率
保存開始波長[nm]	598.495
保存終了波長[nm]	1274.802
保存ﾋﾟｯﾁ波長[nm]	全波長

>>>>>>>>>> Data Start <<<<<<<<<<<<
598.495	0.000000
598.713	0.000000
598.931	0.000000
599.148	0.000000
599.366	-68.055597
599.584	32.488047
599.802	57.151952
600.020	0.000000
600.238	0.000000
600.455	0.000000
600.673	0.000000
600.891	64.799826
601.109	56.086509
601.326	55.646427
601.544	55.526643
601.762	55.740687
601.979	56.415183
602.197	56.896742
602.415	57.133210
602.632	57.172314
602.850	57.108519
603.067	56.861294
603.285	56.901117
603.502	57.219600
603.720	57.357277
603.938	57.437119
604.155	57.379605
604.372	57.275899
604.590	57.276496
604.807	57.278481
605.025	57.450926
605.242	57.715208
605.460	58.106840
605.677	58.325881
605.894	58.506954
606.112	58.787321
606.329	58.943063
606.546	58.923891
606.764	58.840627
606.981	58.832848
607.198	58.693469
607.415	58.432663
607.633	58.296930
607.850	58.446657
608.067	58.620722
608.284	58.897384
608.501	59.138834
608.718	59.502759
608.935	60.158844
609.153	60.845153
609.370	61.283123
609.587	61.776538
609.804	62.223220
610.021	62.473016
610.238	62.318322
610.455	62.270487
610.672	62.062278
610.889	61.960132
611.106	62.065236
611.323	61.925281
611.540	61.806926
611.756	61.818375
611.973	61.779189
612.190	61.931539
612.407	62.157474
612.624	62.554276
612.841	62.995918
613.057	63.453813
613.274	63.718531
613.491	63.794018
613.708	64.014738
613.925	63.998778
614.141	64.255434
614.358	64.867216
614.575	65.176197
614.791	65.319752
615.008	65.365311
615.225	65.330975
615.441	65.512848
615.658	65.712637
615.874	65.887639
616.091	66.259580
616.307	66.678735
616.524	66.654864
616.740	66.288736
616.957	66.169491
617.173	66.374645
617.390	66.878714
617.606	67.335535
617.823	67.553889
618.039	67.791443
618.256	68.124576
618.472	68.186624
618.688	68.334698
618.905	68.700958
619.121	69.267528
619.337	69.821610
619.554	70.169827
619.770	70.289778
619.986	70.431971
620.202	70.274290
620.419	70.078820
620.635	70.065889
620.851	70.145763
621.067	70.060751
621.283	69.732926
621.499	69.723843
621.716	69.827921
621.932	69.879416
622.148	69.750322
622.364	69.726157
622.580	69.981074
622.796	70.525102
623.012	70.921188
623.228	71.145370
623.444	71.474823
623.660	71.873817
623.876	71.910368
624.092	71.827383
624.308	71.699116
624.524	71.815125
624.740	71.865239
624.955	71.781828
625.171	71.515801
625.387	71.416388
625.603	71.687891
625.819	71.954797
626.034	71.958012
626.250	71.861892
626.466	72.047781
626.682	72.528415
626.897	72.858959
627.113	73.328354
627.329	73.985739
627.544	74.744460
627.760	75.377110
627.976	75.646232
628.191	75.596637
628.407	75.854313
628.623	76.362718
628.838	76.654861
629.054	76.634413
629.269	76.518221
629.485	76.395399
629.700	76.336154
629.916	76.002370
630.131	75.570745
630.347	75.369763
630.562	75.378032
630.777	75.296015
630.993	75.079133
631.208	74.883511
631.424	74.892722
631.639	74.849838
631.854	74.654440
632.070	74.475522
632.285	74.628600
632.500	74.863685
632.715	74.954208
632.931	75.141433
633.146	75.170304
633.361	75.073556
633.576	75.153030
633.791	75.217217
634.007	75.637167
634.222	76.253973
634.437	76.743006
634.652	76.985278
634.867	77.109774
635.082	77.457428
635.297	77.708478
635.512	77.960997
635.727	78.373791
635.942	78.394609
636.157	78.307453
636.372	78.220002
636.587	78.092591
636.802	78.109234
637.017	78.175846
637.232	78.113988
637.447	78.110621
637.662	78.361167
637.876	78.518326
638.091	78.614503
638.306	79.127420
638.521	79.644406
638.736	79.863836
638.951	79.917351
639.165	79.751986
639.380	79.494540
639.595	79.401997
639.809	79.200530
640.024	79.076633
640.239	79.358104
640.453	79.460301
640.668	79.337255
640.883	79.284111
641.097	79.202248
641.312	79.320104
641.526	79.335380
641.741	79.282989
641.955	79.250467
642.170	79.256773
642.384	78.984924
642.599	78.832911
642.813	78.695897
643.028	78.480569
643.242	78.350367
643.457	78.602729
643.671	78.747243
643.885	78.970315
644.100	79.543172
644.314	80.302324
644.528	80.826916
644.743	81.150718
644.957	81.270556
645.171	81.897349
645.386	82.690283
645.600	83.033323
645.814	82.909940
646.028	82.867429
646.242	83.216335
646.457	83.177204
646.671	82.849112
646.885	82.748771
647.099	82.682346
647.313	82.625465
647.527	82.623800
647.741	82.453238
647.955	82.468832
648.169	82.586534
648.383	82.341795
648.597	81.826942
648.811	81.547538
649.025	81.359297
649.239	81.206741
649.453	81.353866
649.667	81.464030
649.881	81.305098
650.095	81.294389
650.309	81.278579
650.523	81.240647
650.737	81.500571
650.950	82.102159
651.164	82.796252
651.378	83.314713
651.592	83.542877
651.805	83.524622
652.019	83.519495
652.233	83.296950
652.447	82.994251
652.660	82.822695
652.874	82.706031
653.088	82.470940
653.301	81.902497
653.515	81.511488
653.728	81.513040
653.942	81.588697
654.156	81.833704
654.369	82.136333
654.583	82.586901
654.796	83.199721
655.010	83.793916
655.223	84.319275
655.437	84.778909
655.650	85.196780
655.863	85.159940
656.077	84.998724
656.290	85.068887
656.504	85.253378
656.717	85.460063
656.930	85.594750
657.144	85.564647
657.357	85.579907
657.570	85.734245
657.783	85.817840
657.997	85.984593
658.210	86.153383
658.423	86.166186
658.636	85.930817
658.849	85.465211
659.063	85.069866
659.276	84.910037
659.489	85.058355
659.702	84.982457
659.915	84.579518
660.128	84.240480
660.341	83.953835
660.554	83.936971
660.767	83.886077
660.980	83.887371
661.193	83.940004
661.406	84.000084
661.619	83.871951
661.832	83.327933
662.045	82.675590
662.258	82.390614
662.471	82.427896
662.684	82.535730
662.897	82.579926
663.110	82.492294
663.322	82.425830
663.535	82.680196
663.748	82.982358
663.961	83.095246
664.174	83.124522
664.386	83.392395
664.599	83.893371
664.812	84.372018
665.024	84.539647
665.237	84.392064
665.450	84.636774
665.662	85.087595
665.875	85.193546
666.088	85.054637
666.300	85.165419
666.513	85.631516
666.725	86.058274
666.938	86.090710
667.150	85.843439
667.363	85.745287
667.575	85.893230
667.788	85.867678
668.000	85.529263
668.213	85.377866
668.425	85.463933
668.638	85.403990
668.850	85.147215
669.062	84.997776
669.275	85.171126
669.487	85.362802
669.699	85.537202
669.912	85.802563
670.124	85.979447
670.336	86.005729
670.548	85.864397
670.761	85.781639
670.973	85.747005
671.185	85.770984
671.397	85.752418
671.609	85.356848
671.822	85.293136
672.034	85.299729
672.246	85.325778
672.458	85.423078
672.670	85.446180
672.882	85.462214
673.094	85.297119
673.306	85.260068
673.518	85.468415
673.730	85.755921
673.942	86.213418
674.154	86.272184
674.366	86.002113
674.578	85.555489
674.790	85.344908
675.002	85.461097
675.214	85.340644
675.425	85.253291
675.637	85.233429
675.849	85.107552
676.061	85.061006
676.273	84.817951
676.484	84.693447
676.696	84.935573
676.908	85.333886
677.120	85.491672
677.331	85.549307
677.543	85.935340
677.755	86.610362
677.966	87.149575
678.178	87.221470
678.389	86.993182
678.601	86.894036
678.813	86.800778
679.024	86.609905
679.236	86.320054
679.447	86.080950
679.659	86.017426
679.870	86.058652
680.082	85.663873
680.293	85.307628
680.505	85.398135
680.716	85.520024
680.927	85.710439
681.139	86.020554
681.350	86.291749
681.562	86.365512
681.773	86.433401
681.984	86.350525
682.196	86.077314
682.407	85.862336
682.618	85.549269
682.829	85.121101
683.041	84.763534
683.252	84.529982
683.463	84.442333
683.674	84.344655
683.885	84.334323
684.097	84.162481
684.308	83.932750
684.519	83.908385
684.730	83.986794
684.941	84.287358
685.152	84.581936
685.363	84.851779
685.574	84.962449
685.785	84.635282
685.996	84.497414
686.207	84.723622
686.418	85.004699
686.629	85.269118
686.840	85.437748
687.051	85.437090
687.262	85.156582
687.473	84.636154
687.684	84.321357
687.894	84.145028
688.105	84.001784
688.316	83.724710
688.527	83.314285
688.738	83.021465
688.948	82.781871
689.159	82.446020
689.370	82.247846
689.580	81.996294
689.791	82.097403
690.002	82.132154
690.212	81.939666
690.423	82.019837
690.634	82.299611
690.844	82.559054
691.055	82.779103
691.266	83.157495
691.476	83.764632
691.687	84.265877
691.897	84.457406
692.108	84.507238
692.318	84.527796
692.529	84.617688
692.739	84.815330
692.949	84.856806
693.160	84.730074
693.370	84.515000
693.581	84.411052
693.791	84.120249
694.001	83.757414
694.212	83.704905
694.422	83.677587
694.632	83.865898
694.843	83.959038
695.053	83.824210
695.263	83.858059
695.473	83.993056
695.683	84.375200
695.894	84.505710
696.104	84.735087
696.314	85.143701
696.524	85.449043
696.734	85.384383
696.944	85.075624
697.154	84.890247
697.365	84.607550
697.575	84.400870
697.785	84.259860
697.995	83.999385
698.205	83.936064
698.415	83.859862
698.625	83.869506
698.834	84.176590
699.044	84.812860
699.254	85.382601
699.464	86.070146
699.674	86.818305
699.884	86.852842
700.094	86.634643
700.304	86.352543
700.513	85.844839
700.723	85.141567
700.933	84.358825
701.143	83.625917
701.353	82.906989
701.562	82.154258
701.772	81.319633
701.982	80.714084
702.191	80.454090
702.401	80.283607
702.611	80.307288
702.820	80.346964
703.030	80.494616
703.239	80.552488
703.449	80.527397
703.659	80.716996
703.868	81.304925
704.078	81.971089
704.287	82.380832
704.497	82.712832
704.706	82.815353
704.916	82.593411
705.125	82.453860
705.334	82.563083
705.544	82.857491
705.753	83.097388
705.962	82.982723
706.172	82.370162
706.381	81.830976
706.590	81.278161
706.800	80.818219
707.009	80.822154
707.218	81.115911
707.428	81.442119
707.637	81.200923
707.846	80.979154
708.055	81.212186
708.264	81.680760
708.474	82.336917
708.683	82.669859
708.892	82.825438
709.101	82.890101
709.310	82.887097
709.519	82.857500
709.728	82.809164
709.937	83.174982
710.146	83.320774
710.355	82.726715
710.564	81.891680
710.773	81.107699
710.982	80.508788
711.191	80.078230
711.400	79.633761
711.609	79.339332
711.818	79.145020
712.027	78.912934
712.235	78.627846
712.444	78.453172
712.653	78.644669
712.862	78.975438
713.071	79.125004
713.279	79.232320
713.488	79.557512
713.697	80.147325
713.906	80.450870
714.114	80.404886
714.323	80.027839
714.532	79.649542
714.740	79.389966
714.949	79.133671
715.157	78.841724
715.366	78.575615
715.575	78.390393
715.783	78.110701
715.992	77.567896
716.200	76.894273
716.409	76.429335
716.617	76.566383
716.826	76.773209
717.034	76.761598
717.242	76.801373
717.451	77.117703
717.659	77.733226
717.868	78.271696
718.076	78.457678
718.284	78.576229
718.493	78.847487
718.701	78.868867
718.909	78.629401
719.118	78.483983
719.326	78.289842
719.534	78.054956
719.742	77.752182
719.951	77.282541
720.159	76.883672
720.367	76.976181
720.575	77.252836
720.783	77.407130
720.991	77.693548
721.199	77.945299
721.408	77.966112
721.616	78.093045
721.824	78.050364
722.032	77.800968
722.240	77.585208
722.448	77.406615
722.656	77.101391
722.864	76.617412
723.072	75.989220
723.280	75.248574
723.487	74.368966
723.695	73.745932
723.903	73.257386
724.111	72.873612
724.319	72.533491
724.527	72.053857
724.735	71.706531
724.942	71.386223
725.150	71.026704
725.358	70.941150
725.566	71.111971
725.773	71.419959
725.981	71.567214
726.189	71.557072
726.396	71.447874
726.604	71.313807
726.812	71.267952
727.019	70.933810
727.227	70.427083
727.435	70.119786
727.642	70.003984
727.850	69.811244
728.057	69.430357
728.265	69.028968
728.472	68.977828
728.680	69.109986
728.887	69.219310
729.095	69.288705
729.302	69.393416
729.509	69.502672
729.717	69.536770
729.924	69.381084
730.132	69.181864
730.339	69.379520
730.546	69.702985
730.753	69.635352
730.961	69.419783
731.168	69.347466
731.375	69.397619
731.583	69.498584
731.790	69.805840
731.997	70.441030
732.204	70.954285
732.411	71.087432
732.618	70.814182
732.826	70.412473
733.033	70.323191
733.240	70.458120
733.447	70.414293
733.654	70.080057
733.861	69.637856
734.068	68.989242
734.275	68.021479
734.482	67.196255
734.689	66.865204
734.896	66.787254
735.103	66.639653
735.310	66.201020
735.517	65.718183
735.724	65.429971
735.931	65.526028
736.137	65.629594
736.344	65.657150
736.551	65.701083
736.758	65.681994
736.965	65.623701
737.171	65.642565
737.378	65.711234
737.585	65.791000
737.792	65.736352
737.998	65.700036
738.205	65.534400
738.412	65.119227
738.618	64.803585
738.825	64.632633
739.032	64.627890
739.238	64.579192
739.445	64.287250
739.651	63.778558
739.858	63.146227
740.064	62.595970
740.271	62.003493
740.477	61.470087
740.684	61.307324
740.890	61.067877
741.097	60.510265
741.303	59.661611
741.510	59.045716
741.716	58.669365
741.922	58.317068
742.129	58.012123
742.335	57.657327
742.541	57.139106
742.748	56.626120
742.954	56.216782
743.160	55.857008
743.366	55.818261
743.573	55.984677
743.779	55.951617
743.985	55.722081
744.191	55.529518
744.397	55.538425
744.604	55.470618
744.810	55.510269
745.016	55.712011
745.222	55.830310
745.428	55.819242
745.634	55.607087
745.840	55.428607
746.046	55.183364
746.252	54.970097
746.458	54.739082
746.664	54.439490
746.870	54.270186
747.076	53.885590
747.282	53.168841
747.488	52.566964
747.694	52.345663
747.900	52.305991
748.105	52.206838
748.311	52.081743
748.517	51.855953
748.723	51.670257
748.929	51.267377
749.134	50.630385
749.340	50.079672
749.546	49.545110
749.752	48.959483
749.957	48.372866
750.163	47.806770
750.369	47.156690
750.574	46.514362
750.780	45.908449
750.985	45.426150
751.191	45.166411
751.397	45.105947
751.602	45.066282
751.808	45.073129
752.013	45.052470
752.219	44.922675
752.424	44.597374
752.630	44.178422
752.835	43.785979
753.041	43.545890
753.246	43.241690
753.451	42.812170
753.657	42.352289
753.862	42.139663
754.067	42.031460
754.273	41.722020
754.478	41.256473
754.683	40.905132
754.889	40.643555
755.094	40.359936
755.299	40.014616
755.504	39.635643
755.710	39.268161
755.915	38.948860
756.120	38.435326
756.325	37.938254
756.530	37.526468
756.735	37.041703
756.940	36.565117
757.146	36.228454
757.351	36.007342
757.556	35.904462
757.761	35.897761
757.966	35.936598
758.171	35.863349
758.376	35.612533
758.581	35.174500
758.786	34.896437
758.990	34.817442
759.195	34.605027
759.400	34.256066
759.605	33.844003
759.810	33.239332
760.015	32.661961
760.220	32.143279
760.424	31.792973
760.629	31.586687
760.834	31.369177
761.039	31.099020
761.244	30.807807
761.448	30.563840
761.653	30.325366
761.858	29.979697
762.062	29.630316
762.267	29.295012
762.472	28.942922
762.676	28.641781
762.881	28.407024
763.085	28.125689
763.290	27.878570
763.494	27.539398
763.699	27.172166
763.903	26.864520
764.108	26.556930
764.312	26.240475
764.517	25.879874
764.721	25.620623
764.926	25.221720
765.130	24.783509
765.335	24.493517
765.539	24.038053
765.743	23.698860
765.948	23.431314
766.152	23.166542
766.356	22.995541
766.560	22.909141
766.765	22.967382
766.969	22.934509
767.173	22.916433
767.377	22.914504
767.582	22.955429
767.786	22.942098
767.990	22.866859
768.194	22.767499
768.398	22.673310
768.602	22.558451
768.806	22.494958
769.010	22.300805
769.215	22.086166
769.419	21.985803
769.623	21.884189
769.827	21.683107
770.031	21.587234
770.234	21.463924
770.438	21.344765
770.642	21.219537
770.846	21.151173
771.050	20.987330
771.254	20.942183
771.458	20.990137
771.662	20.874165
771.866	20.788247
772.069	20.747591
772.273	20.803624
772.477	20.836168
772.681	20.847724
772.885	20.874083
773.088	20.789829
773.292	20.829433
773.496	20.796106
773.699	20.675408
773.903	20.665895
774.107	20.652293
774.310	20.691846
774.514	20.685678
774.717	20.754136
774.921	20.844218
775.124	20.939129
775.328	21.187318
775.531	21.395871
775.735	21.568016
775.938	21.686759
776.142	21.708996
776.345	21.873030
776.549	22.025371
776.752	22.025329
776.956	22.052885
777.159	22.132579
777.362	22.099376
777.566	22.011418
777.769	21.948283
777.972	21.920490
778.176	21.917154
778.379	21.910201
778.582	21.839902
778.785	21.848991
778.989	22.114710
779.192	22.392643
779.395	22.704421
779.598	23.000673
779.801	23.248459
780.004	23.417644
780.207	23.502472
780.411	23.684486
780.614	24.060463
780.817	24.333147
781.020	24.486481
781.223	24.508035
781.426	24.568092
781.629	24.559087
781.832	24.639950
782.035	24.658484
782.238	24.673258
782.440	24.854004
782.643	25.121906
782.846	25.288070
783.049	25.449103
783.252	25.532497
783.455	25.696736
783.658	25.769523
783.860	25.847186
784.063	26.104297
784.266	26.653220
784.469	27.177710
784.671	27.635765
784.874	28.075844
785.077	28.455041
785.279	28.944565
785.482	29.592196
785.685	30.282274
785.887	30.973603
786.090	31.529375
786.293	31.926850
786.495	32.179050
786.698	32.341677
786.900	32.459337
787.103	32.464255
787.305	32.515528
787.508	32.592214
787.710	32.550869
787.913	32.325014
788.115	32.202103
788.317	32.237278
788.520	32.440432
788.722	32.741323
788.924	33.102611
789.127	33.600707
789.329	34.141125
789.531	34.540315
789.734	34.821851
789.936	35.150750
790.138	35.425193
790.340	35.572672
790.543	35.768790
790.745	35.829632
790.947	35.851219
791.149	35.948745
791.351	35.857566
791.553	35.664218
791.756	35.633244
791.958	35.677337
792.160	35.755535
792.362	35.907138
792.564	36.136374
792.766	36.370769
792.968	36.636368
793.170	36.831400
793.372	37.149295
793.574	37.511342
793.776	37.844721
793.978	38.082946
794.180	38.423688
794.381	38.820071
794.583	39.355462
794.785	40.030892
794.987	40.597352
795.189	41.007351
795.391	41.445024
795.592	41.854594
795.794	42.255268
795.996	42.827938
796.198	43.457792
796.399	43.816551
796.601	44.093746
796.803	44.489570
797.004	44.810041
797.206	45.062393
797.407	45.181648
797.609	45.180084
797.811	45.217256
798.012	45.311120
798.214	45.237177
798.415	45.160927
798.617	45.213388
798.818	45.482494
799.020	45.584941
799.221	45.517657
799.423	45.396018
799.624	45.575370
799.826	46.045005
800.027	46.506192
800.228	47.013449
800.430	47.531337
800.631	48.118134
800.832	48.745329
801.034	49.030939
801.235	49.253098
801.436	49.529674
801.637	49.970922
801.839	50.401846
802.040	50.522069
802.241	50.453654
802.442	50.349537
802.643	50.332072
802.844	50.413367
803.046	50.408645
803.247	50.597198
803.448	50.797714
803.649	50.909791
803.850	51.032148
804.051	51.284779
804.252	51.662080
804.453	52.153760
804.654	52.580500
804.855	53.062624
805.056	53.358722
805.257	53.528944
805.458	53.643719
805.659	53.924374
805.859	54.239318
806.060	54.509831
806.261	54.445258
806.462	54.278504
806.663	54.097277
806.864	53.879004
807.064	53.763965
807.265	53.940676
807.466	54.248673
807.667	54.515489
807.867	54.571873
808.068	54.850002
808.269	55.319965
808.469	56.073608
808.670	56.803625
808.870	57.246084
809.071	57.527308
809.272	57.542471
809.472	57.366072
809.673	57.405701
809.873	57.504664
810.074	57.780985
810.274	57.945587
810.475	58.004300
810.675	58.043569
810.876	58.223969
811.076	58.712364
811.276	59.275486
811.477	60.013382
811.677	60.516201
811.878	60.668201
812.078	60.612500
812.278	60.517257
812.479	60.510614
812.679	60.370911
812.879	60.084031
813.079	59.950132
813.280	59.837042
813.480	59.691713
813.680	59.497155
813.880	59.659804
814.080	60.176183
814.280	60.712003
814.480	60.877506
814.681	60.919296
814.881	61.237663
815.081	61.453037
815.281	61.516069
815.481	61.612076
815.681	61.934685
815.881	62.341062
816.081	62.393160
816.281	62.064790
816.481	61.993297
816.681	62.424076
816.880	62.985345
817.080	63.224903
817.280	63.323827
817.480	63.245324
817.680	63.109059
817.880	63.219977
818.080	63.325982
818.279	63.627460
818.479	64.214074
818.679	64.665517
818.879	64.812932
819.078	64.394547
819.278	63.984790
819.478	64.046836
819.677	64.229903
819.877	64.562744
820.077	64.672583
820.276	64.695682
820.476	64.768755
820.675	64.831379
820.875	64.824552
821.074	64.854602
821.274	65.255904
821.473	65.731590
821.673	66.026672
821.872	66.450901
822.072	66.738727
822.271	66.976962
822.471	67.213155
822.670	67.291400
822.869	67.335550
823.069	67.671640
823.268	68.142955
823.467	68.631368
823.667	68.977593
823.866	69.233499
824.065	69.281643
824.265	69.073031
824.464	68.782586
824.663	68.757803
824.862	69.156139
825.061	69.692331
825.261	69.658499
825.460	69.268036
825.659	68.910198
825.858	68.758876
826.057	68.880508
826.256	69.231135
826.455	69.793814
826.654	70.421131
826.853	70.597933
827.052	70.160433
827.251	69.662933
