Date	2025年07月03日木曜日 10時01分59秒
Spectrometers	SR401765
ダーク	使用
リファレンス	使用
積分時間[msec]	300
平均回数	1
ｽﾑｰｼﾞﾝｸﾞ	5
Electrical Dark	USE
ピクセル数	3648
計測モード	反射率
保存開始波長[nm]	598.495
保存終了波長[nm]	1274.802
保存ﾋﾟｯﾁ波長[nm]	全波長

>>>>>>>>>> Data Start <<<<<<<<<<<<
598.495	0.000000
598.713	0.000000
598.931	0.000000
599.148	0.000000
599.366	45.219423
599.584	111.344808
599.802	129.679461
600.020	0.000000
600.238	0.000000
600.455	0.000000
600.673	0.000000
600.891	40.132535
601.109	38.236117
601.326	38.851008
601.544	38.696257
601.762	39.180711
601.979	39.401903
602.197	40.086414
602.415	40.498605
602.632	40.775872
602.850	40.794885
603.067	40.539751
603.285	40.606133
603.502	40.927545
603.720	41.010366
603.938	41.201633
604.155	41.129486
604.372	41.085938
604.590	41.057145
604.807	41.191882
605.025	41.440031
605.242	41.768665
605.460	42.277192
605.677	42.425081
605.894	42.520286
606.112	42.942301
606.329	43.201018
606.546	43.345597
606.764	43.445258
606.981	43.452484
607.198	43.303496
607.415	43.145917
607.633	43.176539
607.850	43.363014
608.067	43.812240
608.284	44.170772
608.501	44.287116
608.718	44.561824
608.935	45.049910
609.153	45.430374
609.370	45.762763
609.587	46.100011
609.804	46.234111
610.021	46.277252
610.238	46.257202
610.455	46.173919
610.672	46.155841
610.889	46.327869
611.106	46.443457
611.323	46.375822
611.540	46.387784
611.756	46.570498
611.973	46.686123
612.190	46.907752
612.407	47.096018
612.624	47.359842
612.841	47.743148
613.057	48.075562
613.274	48.254290
613.491	48.489823
613.708	48.678724
613.925	48.764331
614.141	48.977855
614.358	49.410926
614.575	49.787589
614.791	50.178944
615.008	50.390886
615.225	50.548240
615.441	50.868851
615.658	51.161770
615.874	51.303177
616.091	51.565876
616.307	51.839955
616.524	51.813587
616.740	51.628379
616.957	51.586127
617.173	51.736832
617.390	51.932290
617.606	52.018139
617.823	52.029237
618.039	52.098472
618.256	52.300189
618.472	52.364905
618.688	52.656344
618.905	53.210247
619.121	53.840987
619.337	54.249988
619.554	54.481838
619.770	54.671363
619.986	55.041329
620.202	55.121593
620.419	55.095318
620.635	55.220862
620.851	55.538095
621.067	55.646193
621.283	55.541888
621.499	55.586045
621.716	55.862776
621.932	56.075539
622.148	56.197937
622.364	56.301846
622.580	56.642662
622.796	57.159281
623.012	57.434149
623.228	57.529189
623.444	57.765853
623.660	58.043781
623.876	58.036767
624.092	57.934553
624.308	57.891850
624.524	58.185191
624.740	58.376812
624.955	58.211355
625.171	58.107289
625.387	58.259232
625.603	58.631549
625.819	58.932360
626.034	59.084755
626.250	59.172527
626.466	59.487233
626.682	59.941494
626.897	60.129041
627.113	60.444968
627.329	61.221874
627.544	61.861207
627.760	62.151113
627.976	62.217268
628.191	62.144107
628.407	62.339830
628.623	62.871454
628.838	63.203152
629.054	63.344676
629.269	63.449115
629.485	63.494045
629.700	63.411764
629.916	63.291187
630.131	63.299366
630.347	63.398424
630.562	63.531483
630.777	63.660931
630.993	63.463529
631.208	63.324570
631.424	63.196162
631.639	62.946460
631.854	62.649808
632.070	62.565800
632.285	62.588689
632.500	62.770120
632.715	63.099206
632.931	63.429458
633.146	63.332088
633.361	63.340052
633.576	63.504464
633.791	63.645492
634.007	64.073218
634.222	64.763943
634.437	65.335349
634.652	65.774909
634.867	66.006314
635.082	66.098945
635.297	66.022245
635.512	66.127766
635.727	66.355963
635.942	66.535581
636.157	66.770988
636.372	66.931739
636.587	67.053857
636.802	67.124196
637.017	67.131169
637.232	67.130957
637.447	67.253435
637.662	67.792083
637.876	68.297470
638.091	68.637261
638.306	68.947174
638.521	69.338201
638.736	69.743423
638.951	69.801947
639.165	69.698022
639.380	69.600824
639.595	69.669467
639.809	69.851345
640.024	69.961038
640.239	70.072950
640.453	70.150974
640.668	70.235604
640.883	70.206975
641.097	70.001076
641.312	70.025952
641.526	70.182250
641.741	70.333882
641.955	70.242243
642.170	70.072199
642.384	69.821798
642.599	69.704760
642.813	69.656500
643.028	69.551785
643.242	69.560529
643.457	69.780861
643.671	70.070545
643.885	70.268672
644.100	70.501757
644.314	70.951389
644.528	71.409338
644.743	71.809297
644.957	72.311004
645.171	72.958011
645.386	73.616635
645.600	73.898453
645.814	73.903513
646.028	73.850262
646.242	73.902606
646.457	74.053703
646.671	74.027381
646.885	73.894781
647.099	73.804470
647.313	73.711282
647.527	73.729375
647.741	73.561199
647.955	73.523404
648.169	73.427238
648.383	73.020133
648.597	72.741098
648.811	72.428643
649.025	72.235197
649.239	72.229795
649.453	72.232982
649.667	71.951498
649.881	71.637579
650.095	71.489140
650.309	71.335116
650.523	71.321752
650.737	71.644080
650.950	72.071189
651.164	72.636878
651.378	73.085740
651.592	73.295342
651.805	73.454633
652.019	73.834752
652.233	73.867768
652.447	73.734459
652.660	73.875683
652.874	74.021514
653.088	74.060007
653.301	73.754371
653.515	73.570686
653.728	73.620387
653.942	73.704353
654.156	73.708195
654.369	73.713576
654.583	73.907912
654.796	74.448421
655.010	74.944843
655.223	75.443943
655.437	75.713014
655.650	75.900311
655.863	75.785980
656.077	75.649536
656.290	75.696213
656.504	75.819269
656.717	75.877436
656.930	76.029015
657.144	76.026371
657.357	75.905399
657.570	75.759240
657.783	75.676142
657.997	75.955704
658.210	76.274120
658.423	76.447993
658.636	76.519172
658.849	76.451031
659.063	76.387748
659.276	76.329781
659.489	76.252652
659.702	76.244137
659.915	76.189994
660.128	76.118051
660.341	75.865644
660.554	75.771473
660.767	75.642994
660.980	75.312109
661.193	75.272337
661.406	75.350578
661.619	75.319310
661.832	75.127017
662.045	74.657636
662.258	74.404825
662.471	74.522414
662.684	74.641602
662.897	74.637364
663.110	74.521028
663.322	74.426398
663.535	74.500459
663.748	74.734487
663.961	74.924183
664.174	75.100616
664.386	75.309961
664.599	75.561747
664.812	75.771686
665.024	75.995768
665.237	76.196638
665.450	76.742761
665.662	77.554678
665.875	78.006038
666.088	78.216745
666.300	78.458147
666.513	78.844204
666.725	79.359589
666.938	79.820212
667.150	79.924704
667.363	79.869362
667.575	79.844290
667.788	79.636184
668.000	79.149533
668.213	78.806380
668.425	78.731734
668.638	78.688630
668.850	78.478691
669.062	78.391398
669.275	78.394219
669.487	78.289883
669.699	78.266991
669.912	78.426239
670.124	78.488796
670.336	78.532059
670.548	78.572463
670.761	78.517279
670.973	78.487369
671.185	78.471536
671.397	78.336613
671.609	77.958744
671.822	78.099796
672.034	78.373964
672.246	78.563194
672.458	78.871729
672.670	79.045396
672.882	79.070025
673.094	78.983481
673.306	78.939414
673.518	79.256757
673.730	79.736189
673.942	80.297577
674.154	80.412871
674.366	80.242939
674.578	79.848495
674.790	79.521611
675.002	79.543888
675.214	79.545864
675.425	79.551570
675.637	79.626374
675.849	79.548748
676.061	79.502614
676.273	79.390171
676.484	79.352615
676.696	79.476650
676.908	79.747851
677.120	79.813535
677.331	79.722631
677.543	79.818610
677.755	80.237863
677.966	80.493391
678.178	80.299187
678.389	80.042268
678.601	79.998702
678.813	79.964439
679.024	79.855512
679.236	79.626927
679.447	79.512807
679.659	79.564435
679.870	79.666692
680.082	79.347195
680.293	78.986709
680.505	79.172968
680.716	79.301536
680.927	79.272379
681.139	79.293443
681.350	79.349556
681.562	79.510574
681.773	79.701143
681.984	79.616297
682.196	79.324007
682.407	79.058739
682.618	78.874328
682.829	78.621962
683.041	78.335271
683.252	78.149118
683.463	78.121285
683.674	78.236128
683.885	78.275984
684.097	78.167195
684.308	78.142801
684.519	78.224398
684.730	78.430319
684.941	78.742336
685.152	78.983698
685.363	79.129164
685.574	79.161363
685.785	79.036036
685.996	78.907996
686.207	78.990877
686.418	79.128176
686.629	79.359378
686.840	79.684907
687.051	79.874921
687.262	79.737552
687.473	79.401390
687.684	79.248787
687.894	79.080923
688.105	78.975883
688.316	78.793334
688.527	78.497432
688.738	78.316618
688.948	78.029768
689.159	77.511267
689.370	76.992565
689.580	76.616799
689.791	76.330892
690.002	76.024489
690.212	75.857970
690.423	75.895708
690.634	76.023074
690.844	76.171684
691.055	76.377917
691.266	76.803793
691.476	77.568185
691.687	78.296661
691.897	78.677012
692.108	79.013015
692.318	79.226954
692.529	79.317761
692.739	79.478376
692.949	79.660947
693.160	79.792040
693.370	79.770886
693.581	79.688633
693.791	79.478186
694.001	79.278980
694.212	79.464847
694.422	79.887089
694.632	80.297893
694.843	80.353515
695.053	80.118058
695.263	80.075837
695.473	80.178861
695.683	80.464704
695.894	80.598413
696.104	80.598619
696.314	80.778659
696.524	80.820978
696.734	80.317931
696.944	79.844196
697.154	79.818222
697.365	79.670953
697.575	79.438738
697.785	79.285285
697.995	78.961427
698.205	78.850959
698.415	78.766334
698.625	78.475051
698.834	78.571247
699.044	79.170539
699.254	79.820011
699.464	80.441026
699.674	81.146991
699.884	81.183053
700.094	80.870136
700.304	80.616886
700.513	80.108979
700.723	79.556233
700.933	79.180795
701.143	78.596561
701.353	77.876281
701.562	77.182740
701.772	76.447600
701.982	76.053687
702.191	76.181912
702.401	76.264496
702.611	76.365246
702.820	76.469617
703.030	76.688547
703.239	76.915176
703.449	77.075324
703.659	77.267989
703.868	77.747154
704.078	78.338982
704.287	78.611596
704.497	78.583269
704.706	78.352088
704.916	77.893061
705.125	77.631367
705.334	77.547528
705.544	77.510180
705.753	77.489009
705.962	77.471721
706.172	77.095027
706.381	76.785926
706.590	76.400272
706.800	76.214520
707.009	76.465889
707.218	76.978440
707.428	77.360424
707.637	77.295128
707.846	77.275526
708.055	77.646050
708.264	78.249627
708.474	78.888154
708.683	79.216826
708.892	79.456664
709.101	79.469020
709.310	79.282374
709.519	79.123010
709.728	79.212712
709.937	79.701690
710.146	79.908623
710.355	79.385266
710.564	78.469433
710.773	77.617390
710.982	76.950651
711.191	76.519040
711.400	76.251724
711.609	76.265499
711.818	76.329097
712.027	76.124646
712.235	75.895112
712.444	75.800051
712.653	75.959110
712.862	76.274432
713.071	76.352710
713.279	76.227073
713.488	76.217595
713.697	76.486974
713.906	76.721342
714.114	76.815040
714.323	76.765720
714.532	76.524882
714.740	76.250423
714.949	76.039248
715.157	75.954484
715.366	76.052070
715.575	76.249332
715.783	76.205495
715.992	75.862640
716.200	75.307627
716.409	74.724479
716.617	74.457141
716.826	74.285659
717.034	74.216687
717.242	74.332285
717.451	74.554889
717.659	74.855758
717.868	75.132430
718.076	75.405257
718.284	75.663579
718.493	75.908483
718.701	76.013214
718.909	76.113608
719.118	76.372017
719.326	76.369240
719.534	76.049722
719.742	75.593567
719.951	75.148529
720.159	74.786336
720.367	74.787131
720.575	74.875400
720.783	74.825702
720.991	74.948431
721.199	75.105699
721.408	75.082152
721.616	75.189626
721.824	75.482981
722.032	75.610052
722.240	75.608147
722.448	75.660690
722.656	75.536595
722.864	75.188777
723.072	74.812718
723.280	74.303521
723.487	73.528795
723.695	72.839131
723.903	72.384906
724.111	71.918621
724.319	71.489652
724.527	71.090199
724.735	70.797448
724.942	70.493932
725.150	70.306236
725.358	70.242089
725.566	70.322965
725.773	70.598882
725.981	70.850834
726.189	70.800237
726.396	70.760725
726.604	70.801747
726.812	70.892976
727.019	70.761572
727.227	70.329882
727.435	69.864456
727.642	69.789519
727.850	69.781201
728.057	69.520585
728.265	69.115969
728.472	68.960068
728.680	68.834557
728.887	68.564900
729.095	68.240676
729.302	67.951145
729.509	67.844751
729.717	68.018825
729.924	68.059556
730.132	67.976862
730.339	68.080474
730.546	68.398746
730.753	68.541420
730.961	68.512289
731.168	68.526999
731.375	68.489946
731.583	68.456616
731.790	68.697503
731.997	69.080301
732.204	69.336304
732.411	69.411093
732.618	69.208723
732.826	68.896094
733.033	68.774917
733.240	68.802088
733.447	68.870620
733.654	68.972634
733.861	69.047698
734.068	68.748902
734.275	68.136026
734.482	67.530755
734.689	67.072130
734.896	66.775743
735.103	66.447246
735.310	66.059571
735.517	65.701770
735.724	65.524258
735.931	65.535943
736.137	65.499234
736.344	65.489058
736.551	65.377789
736.758	65.196039
736.965	65.154562
737.171	65.342816
737.378	65.612683
737.585	65.677540
737.792	65.669195
737.998	65.669343
738.205	65.502314
738.412	65.078073
738.618	64.650258
738.825	64.578164
739.032	64.645602
739.238	64.714436
739.445	64.626601
739.651	64.171383
739.858	63.709229
740.064	63.219288
740.271	62.674183
740.477	62.338444
740.684	62.398336
740.890	62.483520
741.097	62.123252
741.303	61.550865
741.510	60.987678
741.716	60.501461
741.922	60.172256
742.129	59.811669
742.335	59.547208
742.541	59.176599
742.748	58.782018
742.954	58.439947
743.160	58.105799
743.366	58.048639
743.573	58.132229
743.779	58.134791
743.985	58.127591
744.191	58.262606
744.397	58.535984
744.604	58.671695
744.810	58.911566
745.016	59.138608
745.222	59.251301
745.428	59.427182
745.634	59.522445
745.840	59.653232
746.046	59.700001
746.252	59.591471
746.458	59.323981
746.664	59.091658
746.870	58.970633
747.076	58.456195
747.282	57.811743
747.488	57.519412
747.694	57.387171
747.900	57.353701
748.105	57.263946
748.311	57.120599
748.517	56.974562
748.723	56.896466
748.929	56.545627
749.134	55.847810
749.340	55.340607
749.546	54.917602
749.752	54.224653
749.957	53.468769
750.163	52.812914
750.369	52.119156
750.574	51.596418
750.780	51.219356
750.985	50.725278
751.191	50.399503
751.397	50.454940
751.602	50.668437
751.808	50.851949
752.013	51.116582
752.219	51.329830
752.424	51.205946
752.630	50.880834
752.835	50.478795
753.041	50.076759
753.246	49.892142
753.451	49.742257
753.657	49.516413
753.862	49.361732
754.067	49.095656
754.273	48.564485
754.478	48.104896
754.683	47.760350
754.889	47.556282
755.094	47.356697
755.299	47.084368
755.504	46.738789
755.710	46.234509
755.915	45.810809
756.120	45.199060
756.325	44.659075
756.530	44.318749
756.735	43.801349
756.940	43.265191
757.146	42.864646
757.351	42.571857
757.556	42.471068
757.761	42.439799
757.966	42.596634
758.171	42.571435
758.376	42.422700
758.581	42.173991
758.786	41.892561
758.990	41.604536
759.195	41.361297
759.400	41.053195
759.605	40.594445
759.810	40.025897
760.015	39.472694
760.220	38.818124
760.424	38.223644
760.629	37.814206
760.834	37.486466
761.039	37.252688
761.244	37.093841
761.448	36.815499
761.653	36.580806
761.858	36.367750
762.062	35.991257
762.267	35.512544
762.472	35.137494
762.676	34.912047
762.881	34.702920
763.085	34.486028
763.290	34.116884
763.494	33.597325
763.699	33.079010
763.903	32.503849
764.108	31.896814
764.312	31.519291
764.517	31.309408
764.721	30.985664
764.926	30.588034
765.130	30.062462
765.335	29.545850
765.539	29.019162
765.743	28.684756
765.948	28.409128
766.152	28.107931
766.356	27.875766
766.560	27.677687
766.765	27.465782
766.969	27.301219
767.173	27.199586
767.377	27.137989
767.582	27.114454
767.786	27.002981
767.990	26.719480
768.194	26.456531
768.398	26.156799
768.602	25.838469
768.806	25.372680
769.010	24.873787
769.215	24.394210
769.419	23.838253
769.623	23.380723
769.827	22.911946
770.031	22.570238
770.234	22.240423
770.438	21.773997
770.642	21.436381
770.846	21.099549
771.050	20.746963
771.254	20.449478
771.458	20.159535
771.662	19.945838
771.866	19.708074
772.069	19.456927
772.273	19.223488
772.477	19.021397
772.681	18.915689
772.885	18.796826
773.088	18.673817
773.292	18.551862
773.496	18.330037
773.699	18.136709
773.903	17.861257
774.107	17.608656
774.310	17.423789
774.514	17.105099
774.717	16.809517
774.921	16.638381
775.124	16.475609
775.328	16.366041
775.531	16.271161
775.735	16.074877
775.938	15.845760
776.142	15.581471
776.345	15.360832
776.549	15.109693
776.752	14.940364
776.956	14.815645
777.159	14.582689
777.362	14.228585
777.566	13.784753
777.769	13.428287
777.972	13.234444
778.176	13.138971
778.379	13.033968
778.582	12.929736
778.785	12.737839
778.989	12.596777
779.192	12.452083
779.395	12.376777
779.598	12.375590
779.801	12.454989
780.004	12.319831
780.207	12.195183
780.411	12.024940
780.614	11.983851
780.817	11.981741
781.020	12.047428
781.223	12.063200
781.426	12.066204
781.629	12.000702
781.832	11.897236
782.035	11.758503
782.238	11.655658
782.440	11.601438
782.643	11.683320
782.846	11.769014
783.049	11.719001
783.252	11.601089
783.455	11.513769
783.658	11.456147
783.860	11.366877
784.063	11.367567
784.266	11.473794
784.469	11.692524
784.671	11.958038
784.874	12.123359
785.077	12.160216
785.279	12.265098
785.482	12.442867
785.685	12.598352
785.887	12.874491
786.090	13.102738
786.293	13.173668
786.495	13.265135
786.698	13.389283
786.900	13.333190
787.103	13.293351
787.305	13.352143
787.508	13.561379
787.710	13.598566
787.913	13.616010
788.115	13.505410
788.317	13.570124
788.520	13.715807
788.722	13.851018
788.924	14.054720
789.127	14.276258
789.329	14.418842
789.531	14.606761
789.734	14.621172
789.936	14.832649
790.138	15.045123
790.340	15.252936
790.543	15.403219
790.745	15.550100
790.947	15.787764
791.149	15.865112
791.351	16.005913
791.553	16.214722
791.756	16.344039
791.958	16.506488
792.160	16.686876
792.362	16.881213
792.564	17.106659
792.766	17.318422
792.968	17.516129
793.170	17.478916
793.372	17.655337
793.574	17.833126
793.776	17.978435
793.978	18.226228
794.180	18.571546
794.381	18.886615
794.583	19.308363
794.785	19.584764
794.987	19.855967
795.189	20.291365
795.391	20.887661
795.592	21.265592
795.794	21.580469
795.996	22.018847
796.198	22.393042
796.399	22.654054
796.601	22.874626
796.803	23.002172
797.004	23.358120
797.206	23.688100
797.407	23.781914
797.609	23.835289
797.811	23.953381
798.012	24.183295
798.214	24.367417
798.415	24.521445
798.617	24.671270
798.818	24.893714
799.020	25.235476
799.221	25.372129
799.423	25.474988
799.624	25.674920
799.826	25.929886
800.027	26.322513
800.228	26.635701
800.430	26.960776
800.631	27.374283
800.832	27.772086
801.034	28.075896
801.235	28.244633
801.436	28.455216
801.637	28.800747
801.839	29.290587
802.040	29.555110
802.241	29.653026
802.442	29.878596
802.643	30.011478
802.844	30.125369
803.046	30.344846
803.247	30.573881
803.448	30.826414
803.649	31.135206
803.850	31.455613
804.051	31.729297
804.252	32.100770
804.453	32.640036
804.654	33.123390
804.855	33.645253
805.056	34.103562
805.257	34.221663
805.458	34.437260
805.659	34.733721
805.859	35.047727
806.060	35.310703
806.261	35.437782
806.462	35.461188
806.663	35.418226
806.864	35.389408
807.064	35.385623
807.265	35.657482
807.466	36.094991
807.667	36.430242
807.867	36.796683
808.068	37.306615
808.269	37.741527
808.469	38.295762
808.670	38.960526
808.870	39.468014
809.071	39.795901
809.272	40.052250
809.472	39.979705
809.673	40.061488
809.873	40.164938
810.074	40.168701
810.274	40.045833
810.475	40.011981
810.675	40.031851
810.876	40.192364
811.076	40.453929
811.276	40.771907
811.477	41.101170
811.677	41.436661
811.878	41.665234
812.078	41.735267
812.278	41.873775
812.479	42.188245
812.679	42.529637
812.879	42.579891
813.079	42.580152
813.280	42.500544
813.480	42.369752
813.680	42.273369
813.880	42.418964
814.080	42.790795
814.280	43.353643
814.480	43.707073
814.681	43.806899
814.881	43.942620
815.081	44.296048
815.281	44.658938
815.481	45.254391
815.681	46.054923
815.881	46.686112
816.081	47.060648
816.281	47.093065
816.481	47.041611
816.681	47.223128
816.880	47.511041
817.080	47.697728
817.280	47.913855
817.480	47.928930
817.680	47.852157
817.880	47.832468
818.080	47.953126
818.279	48.138241
818.479	48.561417
818.679	48.973544
818.879	49.266856
819.078	49.252574
819.278	49.002005
819.478	48.821431
819.677	48.856782
819.877	49.032432
820.077	49.250902
820.276	49.416470
820.476	49.570157
820.675	49.664051
820.875	49.910517
821.074	50.130906
821.274	50.480044
821.473	50.990570
821.673	51.471535
821.872	52.068027
822.072	52.620384
822.271	52.914555
822.471	53.055652
822.670	53.016279
822.869	53.023453
823.069	53.138654
823.268	53.376794
823.467	53.770810
823.667	54.182163
823.866	54.470919
824.065	54.480064
824.265	54.236906
824.464	54.028481
824.663	54.180576
824.862	54.599813
825.061	55.034833
825.261	55.032891
825.460	54.752678
825.659	54.512898
825.858	54.417709
826.057	54.402304
826.256	54.491893
826.455	54.763514
826.654	55.130560
826.853	55.267622
827.052	55.286251
827.251	55.291729
