Date	2025年07月03日木曜日 10時00分23秒
Spectrometers	SR401765
ダーク	使用
リファレンス	使用
積分時間[msec]	300
平均回数	1
ｽﾑｰｼﾞﾝｸﾞ	5
Electrical Dark	USE
ピクセル数	3648
計測モード	反射率
保存開始波長[nm]	598.495
保存終了波長[nm]	1274.802
保存ﾋﾟｯﾁ波長[nm]	全波長

>>>>>>>>>> Data Start <<<<<<<<<<<<
598.495	0.000000
598.713	0.000000
598.931	0.000000
599.148	0.000000
599.366	-222.081845
599.584	21.932860
599.802	136.515843
600.020	0.000000
600.238	0.000000
600.455	0.000000
600.673	0.000000
600.891	18.302111
601.109	16.322208
601.326	17.106851
601.544	17.498291
601.762	17.518014
601.979	17.193369
602.197	17.101881
602.415	17.372763
602.632	17.546689
602.850	17.799096
603.067	17.956775
603.285	18.118013
603.502	18.264747
603.720	18.306561
603.938	18.484931
604.155	18.657863
604.372	18.776776
604.590	19.024127
604.807	19.103703
605.025	19.247493
605.242	19.192411
605.460	19.123254
605.677	19.103745
605.894	19.125005
606.112	19.302974
606.329	19.505427
606.546	19.676375
606.764	19.677500
606.981	19.677601
607.198	19.529317
607.415	19.538431
607.633	19.630096
607.850	19.875290
608.067	20.235661
608.284	20.609719
608.501	20.917030
608.718	21.048127
608.935	21.182167
609.153	21.540088
609.370	21.771025
609.587	22.213898
609.804	22.371444
610.021	22.519252
610.238	22.524985
610.455	22.565711
610.672	22.593017
610.889	22.574263
611.106	22.825946
611.323	22.918653
611.540	22.777012
611.756	22.769224
611.973	22.803613
612.190	23.046546
612.407	23.357617
612.624	23.748575
612.841	24.028562
613.057	24.206556
613.274	24.330441
613.491	24.271796
613.708	24.459542
613.925	24.830772
614.141	25.111356
614.358	25.509285
614.575	25.843344
614.791	26.123941
615.008	26.390683
615.225	26.564775
615.441	26.820093
615.658	27.084220
615.874	27.414882
616.091	27.767938
616.307	28.034349
616.524	28.244854
616.740	28.411578
616.957	28.606857
617.173	28.803282
617.390	28.950795
617.606	29.131592
617.823	29.276650
618.039	29.453209
618.256	29.538507
618.472	29.569934
618.688	29.745561
618.905	29.993599
619.121	30.361136
619.337	30.782255
619.554	31.185941
619.770	31.647309
619.986	32.148489
620.202	32.567227
620.419	32.743859
620.635	33.034846
620.851	33.499331
621.067	33.982629
621.283	34.369948
621.499	34.474528
621.716	34.535981
621.932	34.561947
622.148	34.488938
622.364	34.518294
622.580	34.667908
622.796	35.185921
623.012	35.509020
623.228	35.580210
623.444	35.504390
623.660	35.645674
623.876	36.020068
624.092	36.278937
624.308	36.520942
624.524	36.916983
624.740	37.276873
624.955	37.495211
625.171	37.545464
625.387	37.776159
625.603	38.118354
625.819	38.586126
626.034	38.680847
626.250	38.532718
626.466	38.643881
626.682	38.983942
626.897	39.179465
627.113	39.305789
627.329	39.670413
627.544	40.110445
627.760	40.555958
627.976	40.971065
628.191	41.226532
628.407	41.636294
628.623	42.201596
628.838	42.614240
629.054	42.700174
629.269	42.839350
629.485	43.180060
629.700	43.501283
629.916	43.634873
630.131	43.576821
630.347	43.710968
630.562	43.880415
630.777	43.884959
630.993	43.946170
631.208	44.030963
631.424	44.274809
631.639	44.434926
631.854	44.513917
632.070	44.540748
632.285	44.659650
632.500	44.982880
632.715	45.042134
632.931	45.314950
633.146	45.776143
633.361	45.985972
633.576	46.106741
633.791	46.225064
634.007	46.520076
634.222	46.882017
634.437	47.418192
634.652	48.016661
634.867	48.294776
635.082	48.665139
635.297	48.742123
635.512	48.779344
635.727	49.027440
635.942	49.430128
636.157	49.918811
636.372	50.235395
636.587	50.292440
636.802	50.088941
637.017	49.928825
637.232	50.007954
637.447	50.234578
637.662	50.548494
637.876	50.863096
638.091	51.200499
638.306	51.512544
638.521	51.695617
638.736	51.826815
638.951	52.037448
639.165	52.414957
639.380	52.537216
639.595	52.715801
639.809	52.896832
640.024	53.091188
640.239	53.335524
640.453	53.474778
640.668	53.510054
640.883	53.602687
641.097	53.832642
641.312	54.207977
641.526	54.493746
641.741	54.809620
641.955	54.926361
642.170	54.858657
642.384	54.830808
642.599	54.953169
642.813	54.948625
643.028	54.900960
643.242	54.950637
643.457	55.199174
643.671	55.284440
643.885	55.217873
644.100	55.383396
644.314	55.861406
644.528	56.292758
644.743	56.790908
644.957	57.216046
645.171	57.765131
645.386	58.273500
645.600	58.497032
645.814	58.511282
646.028	58.807421
646.242	59.411697
646.457	59.677383
646.671	59.568130
646.885	59.501017
647.099	59.377444
647.313	59.326875
647.527	59.338510
647.741	59.388774
647.955	59.633319
648.169	59.693915
648.383	59.411703
648.597	58.952539
648.811	58.660668
649.025	58.501855
649.239	58.691082
649.453	59.039292
649.667	59.172905
649.881	59.094013
650.095	58.996514
650.309	58.837247
650.523	58.974631
650.737	59.328086
650.950	59.736486
651.164	60.286845
651.378	60.773600
651.592	61.092753
651.805	61.215881
652.019	61.379500
652.233	61.487978
652.447	61.661946
652.660	62.008703
652.874	62.129287
653.088	61.939012
653.301	61.724019
653.515	61.563763
653.728	61.669310
653.942	61.799901
654.156	62.043522
654.369	62.336046
654.583	62.652010
654.796	63.101579
655.010	63.442437
655.223	63.790367
655.437	64.219703
655.650	64.660603
655.863	64.968972
656.077	65.115643
656.290	65.119241
656.504	65.095594
656.717	64.981983
656.930	65.067026
657.144	65.106228
657.357	65.217120
657.570	65.408587
657.783	65.541547
657.997	65.655377
658.210	65.642688
658.423	65.633383
658.636	65.668087
658.849	65.726940
659.063	65.854379
659.276	66.072876
659.489	66.266950
659.702	66.314774
659.915	66.224895
660.128	66.275233
660.341	66.392795
660.554	66.537019
660.767	66.592723
660.980	66.524292
661.193	66.418199
661.406	66.282600
661.619	66.065384
661.832	65.896296
662.045	65.648803
662.258	65.621828
662.471	65.710347
662.684	65.833885
662.897	66.012961
663.110	66.087212
663.322	66.124402
663.535	66.312585
663.748	66.769979
663.961	67.135116
664.174	67.204429
664.386	67.195940
664.599	67.157454
664.812	67.084526
665.024	67.137544
665.237	67.349329
665.450	67.879371
665.662	68.727825
665.875	69.373164
666.088	69.412598
666.300	69.348885
666.513	69.652233
666.725	70.152047
666.938	70.423864
667.150	70.629501
667.363	70.663298
667.575	70.540480
667.788	70.428158
668.000	70.194965
668.213	69.991653
668.425	70.037871
668.638	70.172735
668.850	70.307352
669.062	70.410901
669.275	70.685988
669.487	70.809012
669.699	70.742148
669.912	70.712903
670.124	70.527088
670.336	70.288689
670.548	69.861453
670.761	69.571287
670.973	69.432134
671.185	69.198148
671.397	68.990825
671.609	68.774115
671.822	68.911028
672.034	69.075793
672.246	69.266567
672.458	69.500151
672.670	69.470935
672.882	69.693787
673.094	69.982933
673.306	70.251749
673.518	70.607592
673.730	71.032725
673.942	71.464047
674.154	71.629922
674.366	71.751542
674.578	71.884024
674.790	72.006799
675.002	72.342601
675.214	72.436040
675.425	72.432736
675.637	72.592345
675.849	72.639899
676.061	72.644683
676.273	72.532528
676.484	72.395990
676.696	72.405788
676.908	72.476748
677.120	72.528079
677.331	72.517867
677.543	72.812543
677.755	73.294089
677.966	73.536253
678.178	73.660292
678.389	73.805399
678.601	73.896411
678.813	73.819948
679.024	73.626054
679.236	73.485703
679.447	73.442223
679.659	73.410356
679.870	73.211356
680.082	72.915826
680.293	72.688929
680.505	72.617812
680.716	72.364581
680.927	72.347025
681.139	72.651501
681.350	72.998871
681.562	73.125250
681.773	73.049140
681.984	72.794461
682.196	72.471302
682.407	72.129123
682.618	71.823710
682.829	71.550693
683.041	71.442375
683.252	71.236174
683.463	71.062186
683.674	71.114803
683.885	71.192824
684.097	71.159417
684.308	71.249120
684.519	71.561488
684.730	72.001013
684.941	72.568834
685.152	73.010640
685.363	73.329265
685.574	73.672047
685.785	73.762387
685.996	73.586065
686.207	73.411176
686.418	73.479525
686.629	73.694616
686.840	73.863732
687.051	73.785609
687.262	73.412518
687.473	73.111818
687.684	73.170690
687.894	73.103177
688.105	72.931243
688.316	72.853330
688.527	72.851723
688.738	72.937959
688.948	72.956960
689.159	72.616113
689.370	72.308845
689.580	72.113073
689.791	71.839365
690.002	71.347945
690.212	71.128190
690.423	71.290897
690.634	71.467995
690.844	71.573775
691.055	71.659915
691.266	71.951139
691.476	72.696808
691.687	73.436878
691.897	73.819981
692.108	74.313272
692.318	74.904378
692.529	75.199566
692.739	75.359839
692.949	75.599238
693.160	75.940017
693.370	76.098857
693.581	76.038685
693.791	75.912704
694.001	75.748422
694.212	75.849325
694.422	75.861062
694.632	75.649178
694.843	75.379544
695.053	75.055754
695.263	74.744397
695.473	74.490934
695.683	74.671516
695.894	74.804224
696.104	74.606925
696.314	74.537600
696.524	74.576644
696.734	74.500137
696.944	74.503765
697.154	74.619636
697.365	74.487260
697.575	74.326136
697.785	74.221721
697.995	73.937523
698.205	73.959215
698.415	74.108987
698.625	74.122358
698.834	74.203733
699.044	74.332578
699.254	74.310467
699.464	74.457024
699.674	74.871421
699.884	75.004999
700.094	75.015746
700.304	74.822392
700.513	74.198754
700.723	73.578418
700.933	73.260576
701.143	72.901710
701.353	72.484225
701.562	72.217888
701.772	71.916256
701.982	71.618992
702.191	71.457063
702.401	71.328394
702.611	71.356182
702.820	71.593854
703.030	72.002323
703.239	72.229578
703.449	72.409036
703.659	72.904400
703.868	73.580582
704.078	74.258998
704.287	74.868111
704.497	75.342848
704.706	75.466350
704.916	75.473477
705.125	75.708632
705.334	75.920248
705.544	76.029459
705.753	75.981360
705.962	75.644879
706.172	75.142217
706.381	74.827739
706.590	74.615517
706.800	74.464433
707.009	74.513779
707.218	74.665665
707.428	74.628308
707.637	74.259460
707.846	74.133818
708.055	74.594335
708.264	75.327236
708.474	76.064635
708.683	76.318967
708.892	76.503378
709.101	76.733782
709.310	76.883257
709.519	76.805117
709.728	76.711190
709.937	77.069320
710.146	77.351593
710.355	77.185344
710.564	76.680414
710.773	76.147852
710.982	75.832785
711.191	75.629966
711.400	75.597388
711.609	75.824462
711.818	76.143477
712.027	76.395674
712.235	76.482193
712.444	76.320827
712.653	76.054571
712.862	75.913304
713.071	75.532729
713.279	75.095138
713.488	74.741041
713.697	74.395533
713.906	74.113889
714.114	74.019044
714.323	73.789635
714.532	73.603130
714.740	73.519793
714.949	73.503611
715.157	73.768980
715.366	74.199660
715.575	74.582528
715.783	74.859419
715.992	75.020221
716.200	74.801134
716.409	74.340164
716.617	74.002990
716.826	73.606320
717.034	73.366008
717.242	73.284110
717.451	73.061394
717.659	73.098721
717.868	73.287977
718.076	73.371282
718.284	73.250926
718.493	73.160816
718.701	73.068399
718.909	73.232338
719.118	73.594987
719.326	73.624755
719.534	73.395549
719.742	73.199146
719.951	72.897773
720.159	72.701871
720.367	72.674964
720.575	72.741951
720.783	72.961322
720.991	73.182405
721.199	73.162946
721.408	73.144871
721.616	73.537757
721.824	74.019815
722.032	74.070294
722.240	73.988693
722.448	73.959558
722.656	73.902369
722.864	73.883067
723.072	73.673466
723.280	73.430597
723.487	73.104739
723.695	72.717142
723.903	72.237466
724.111	71.750375
724.319	71.727710
724.527	72.005497
724.735	72.410877
724.942	72.637652
725.150	72.482311
725.358	72.397473
725.566	72.499826
725.773	72.853250
725.981	73.081726
726.189	73.095245
726.396	73.115491
726.604	73.080882
726.812	72.850049
727.019	72.141879
727.227	71.454034
727.435	71.378164
727.642	71.627737
727.850	71.723089
728.057	71.247928
728.265	70.837990
728.472	70.792530
728.680	70.834119
728.887	70.733411
729.095	70.577463
729.302	70.609723
729.509	70.713595
729.717	70.760988
729.924	70.754365
730.132	70.744970
730.339	71.159490
730.546	71.632535
730.753	71.902770
730.961	72.065389
731.168	72.117694
731.375	72.006111
731.583	72.041689
731.790	72.323694
731.997	72.654244
732.204	72.897870
732.411	72.932416
732.618	72.631627
732.826	72.062901
733.033	71.654407
733.240	71.437214
733.447	71.335264
733.654	71.351112
733.861	71.296744
734.068	71.035223
734.275	70.572625
734.482	70.011668
734.689	69.711782
734.896	69.764171
735.103	70.049916
735.310	70.185065
735.517	70.373037
735.724	70.866786
735.931	71.662105
736.137	72.239667
736.344	72.430507
736.551	72.470420
736.758	72.501135
736.965	72.756013
737.171	73.118957
737.378	73.323170
737.585	73.450900
737.792	73.369968
737.998	73.047359
738.205	72.437916
738.412	71.711219
738.618	71.346292
738.825	71.363369
739.032	71.646777
739.238	71.871012
739.445	71.910134
739.651	71.722172
739.858	71.339289
740.064	70.867576
740.271	70.499311
740.477	70.320344
740.684	70.389599
740.890	70.421459
741.097	70.230316
741.303	69.639424
741.510	69.103216
741.716	68.687223
741.922	68.430207
742.129	68.389169
742.335	68.394061
742.541	68.183231
742.748	67.994934
742.954	68.034342
743.160	68.127434
743.366	68.160880
743.573	68.142268
743.779	67.938987
743.985	67.780673
744.191	67.690970
744.397	67.737632
744.604	67.937415
744.810	68.209672
745.016	68.522213
745.222	68.642679
745.428	68.614454
745.634	68.592632
745.840	68.703791
746.046	68.661560
746.252	68.517790
746.458	68.439038
746.664	68.332205
746.870	68.147276
747.076	67.707086
747.282	67.192346
747.488	66.838562
747.694	66.660962
747.900	66.794394
748.105	67.169442
748.311	67.521825
748.517	67.676547
748.723	67.784466
748.929	67.712867
749.134	67.547527
749.340	67.480433
749.546	67.386551
749.752	67.244049
749.957	66.906305
750.163	66.281768
750.369	65.552291
750.574	65.110157
750.780	64.845330
750.985	64.749815
751.191	64.887647
751.397	65.101188
751.602	65.523197
751.808	65.743012
752.013	65.723763
752.219	65.837583
752.424	65.910961
752.630	65.684731
752.835	65.377562
753.041	65.124860
753.246	64.744307
753.451	64.255404
753.657	63.880430
753.862	63.505029
754.067	63.084026
754.273	62.751632
754.478	62.458603
754.683	62.352968
754.889	62.619806
755.094	62.898525
755.299	62.962482
755.504	62.895072
755.710	62.865600
755.915	62.860888
756.120	62.624412
756.325	62.408598
756.530	62.207901
756.735	61.880709
756.940	61.551797
757.146	61.286587
757.351	61.073715
757.556	61.160857
757.761	61.432656
757.966	61.612207
758.171	61.487039
758.376	61.321871
758.581	61.107117
758.786	60.878128
758.990	60.774520
759.195	60.734557
759.400	60.619496
759.605	60.327622
759.810	59.959063
760.015	59.622761
760.220	59.128562
760.424	58.810144
760.629	58.657122
760.834	58.571337
761.039	58.529274
761.244	58.590038
761.448	58.487608
761.653	58.097025
761.858	57.782828
762.062	57.477104
762.267	57.063313
762.472	56.861151
762.676	56.808750
762.881	56.867047
763.085	57.032753
763.290	57.084389
763.494	56.865780
763.699	56.739619
763.903	56.840028
764.108	56.894814
764.312	56.897972
764.517	56.856368
764.721	56.754417
764.926	56.546613
765.130	56.102021
765.335	55.722592
765.539	55.484920
765.743	55.332333
765.948	54.945781
766.152	54.456931
766.356	54.098137
766.560	53.837192
766.765	53.715056
766.969	53.585985
767.173	53.411116
767.377	53.305962
767.582	53.150583
767.786	52.902047
767.990	52.634692
768.194	52.582627
768.398	52.586720
768.602	52.360199
768.806	52.070352
769.010	51.858333
769.215	51.530353
769.419	51.271950
769.623	51.265093
769.827	51.215879
770.031	50.935168
770.234	50.495226
770.438	50.020928
770.642	49.606238
770.846	49.501783
771.050	49.322335
771.254	49.030921
771.458	49.062965
771.662	49.077995
771.866	48.756461
772.069	48.304468
772.273	48.068913
772.477	47.951988
772.681	47.657509
772.885	47.340443
773.088	46.837903
773.292	46.519477
773.496	46.190650
773.699	45.591073
773.903	45.051131
774.107	44.832380
774.310	44.670356
774.514	44.397170
774.717	44.292804
774.921	44.437654
775.124	44.698759
775.328	44.983301
775.531	45.078890
775.735	45.111748
775.938	45.102348
776.142	44.890074
776.345	44.503083
776.549	44.196988
776.752	44.040547
776.956	43.817323
777.159	43.389871
777.362	42.706989
777.566	42.040348
777.769	41.492961
777.972	40.900208
778.176	40.434066
778.379	40.064994
778.582	39.837765
778.785	39.665712
778.989	39.351982
779.192	38.975639
779.395	38.730161
779.598	38.569449
779.801	38.344224
780.004	37.973661
780.207	37.756190
780.411	37.552580
780.614	37.408037
780.817	37.016309
781.020	36.680985
781.223	36.397549
781.426	36.083573
781.629	35.687436
781.832	35.257742
782.035	34.786925
782.238	34.393295
782.440	33.969615
782.643	33.618496
782.846	33.197491
783.049	32.773751
783.252	32.238784
783.455	31.795895
783.658	31.422436
783.860	31.044102
784.063	30.725752
784.266	30.640274
784.469	30.530509
784.671	30.510444
784.874	30.521531
785.077	30.552818
785.279	30.635697
785.482	30.652082
785.685	30.604385
785.887	30.506578
786.090	30.423574
786.293	30.210267
786.495	29.875000
786.698	29.468386
786.900	28.845383
787.103	28.201959
787.305	27.509787
787.508	26.927454
787.710	26.351236
787.913	25.779464
788.115	25.310124
788.317	24.848047
788.520	24.483960
788.722	24.062144
788.924	23.746157
789.127	23.633115
789.329	23.404940
789.531	23.236013
789.734	23.055476
789.936	22.989834
790.138	22.846940
790.340	22.719274
790.543	22.479335
790.745	22.200592
790.947	21.938442
791.149	21.497928
791.351	20.903620
791.553	20.337076
791.756	19.908632
791.958	19.511215
792.160	19.069278
792.362	18.744253
792.564	18.275828
792.766	17.929997
792.968	17.652106
793.170	17.340670
793.372	17.144663
793.574	16.880919
793.776	16.803679
793.978	16.572098
794.180	16.347153
794.381	16.254573
794.583	16.130868
794.785	16.018729
794.987	15.845998
795.189	15.673632
795.391	15.556527
795.592	15.393732
795.794	15.301522
795.996	15.157371
796.198	14.979469
796.399	14.774532
796.601	14.500098
796.803	14.270313
797.004	14.014578
797.206	13.848019
797.407	13.628468
797.609	13.353273
797.811	13.163329
798.012	12.993958
798.214	12.803188
798.415	12.572222
798.617	12.389706
798.818	12.115902
799.020	11.826443
799.221	11.557652
799.423	11.208814
799.624	10.949961
799.826	10.744380
800.027	10.698672
800.228	10.705735
800.430	10.445327
800.631	10.413069
800.832	10.308045
801.034	10.217035
801.235	10.251783
801.436	10.212887
801.637	10.254897
801.839	10.304453
802.040	10.284353
802.241	10.099203
802.442	9.912387
802.643	9.875059
802.844	9.664501
803.046	9.530425
803.247	9.484242
803.448	9.421192
803.649	9.446262
803.850	9.395579
804.051	9.407305
804.252	9.533891
804.453	9.604353
804.654	9.604943
804.855	9.644461
805.056	9.733178
805.257	9.715828
805.458	9.730854
805.659	9.672426
805.859	9.615752
806.060	9.547506
806.261	9.459103
806.462	9.281057
806.663	9.195097
806.864	9.266884
807.064	9.360884
807.265	9.445980
807.466	9.543950
807.667	9.615551
807.867	9.660709
808.068	9.841578
808.269	9.997004
808.469	10.129081
808.670	10.337807
808.870	10.450507
809.071	10.389541
809.272	10.295975
809.472	10.215291
809.673	10.262906
809.873	10.304441
810.074	10.380795
810.274	10.282970
810.475	10.380969
810.675	10.436733
810.876	10.516218
811.076	10.668187
811.276	10.910886
811.477	11.158754
811.677	11.363463
811.878	11.535963
812.078	11.779876
812.278	11.909565
812.479	12.112035
812.679	12.189455
812.879	12.403350
813.079	12.517345
813.280	12.701734
813.480	12.882972
813.680	13.000089
813.880	13.143025
814.080	13.376118
814.280	13.503088
814.480	13.719326
814.681	14.013372
814.881	14.298506
815.081	14.502871
815.281	14.743157
815.481	14.971074
815.681	15.196518
815.881	15.493132
816.081	15.858192
816.281	15.920579
816.481	16.019692
816.681	16.115967
816.880	16.316455
817.080	16.613497
817.280	16.828531
817.480	16.991329
817.680	17.163332
817.880	17.450909
818.080	17.777852
818.279	17.885585
818.479	18.123270
818.679	18.423940
818.879	18.767617
819.078	18.986020
819.278	18.995133
819.478	19.093997
819.677	19.377178
819.877	19.697689
820.077	19.935777
820.276	20.082356
820.476	20.475355
820.675	20.876874
820.875	21.317798
821.074	21.639151
821.274	21.995274
821.473	22.434888
821.673	22.702770
821.872	22.860492
822.072	22.997587
822.271	23.047622
822.471	23.196796
822.670	23.191805
822.869	23.250986
823.069	23.448430
823.268	23.643448
823.467	23.800588
823.667	24.025490
823.866	24.333425
824.065	24.649700
824.265	24.779172
824.464	25.019195
824.663	25.356550
824.862	25.841816
825.061	26.257531
825.261	26.317320
825.460	26.429698
825.659	26.449088
825.858	26.473430
826.057	26.594039
826.256	26.820092
826.455	27.112606
826.654	27.389227
826.853	27.545680
827.052	27.649123
827.251	28.016453
827.450	28.483426
