Date	2025年07月03日木曜日 10時01分07秒
Spectrometers	SR401765
ダーク	使用
リファレンス	使用
積分時間[msec]	300
平均回数	1
ｽﾑｰｼﾞﾝｸﾞ	5
Electrical Dark	USE
ピクセル数	3648
計測モード	反射率
保存開始波長[nm]	598.495
保存終了波長[nm]	1274.802
保存ﾋﾟｯﾁ波長[nm]	全波長

>>>>>>>>>> Data Start <<<<<<<<<<<<
598.495	0.000000
598.713	0.000000
598.931	0.000000
599.148	0.000000
599.366	247.263908
599.584	143.078343
599.802	196.513939
600.020	0.000000
600.238	0.000000
600.455	0.000000
600.673	0.000000
600.891	28.873066
601.109	25.800164
601.326	26.642780
601.544	26.382389
601.762	26.615880
601.979	26.851051
602.197	27.320318
602.415	27.473422
602.632	27.639471
602.850	27.805279
603.067	27.843247
603.285	27.797696
603.502	27.901349
603.720	27.826517
603.938	27.884327
604.155	27.988961
604.372	28.075935
604.590	28.178665
604.807	28.425966
605.025	28.599743
605.242	28.595206
605.460	28.496511
605.677	28.642875
605.894	28.815965
606.112	29.082458
606.329	29.366063
606.546	29.452362
606.764	29.444905
606.981	29.362798
607.198	29.086024
607.415	28.990070
607.633	28.989537
607.850	29.355118
608.067	29.766497
608.284	30.098058
608.501	30.389925
608.718	30.785697
608.935	31.044921
609.153	31.283203
609.370	31.725520
609.587	32.272061
609.804	32.592963
610.021	32.896749
610.238	32.964691
610.455	32.856212
610.672	32.773545
610.889	32.829171
611.106	32.914678
611.323	33.034692
611.540	33.211623
611.756	33.346138
611.973	33.444278
612.190	33.593275
612.407	33.877604
612.624	34.307403
612.841	34.664594
613.057	35.059866
613.274	35.336649
613.491	35.498491
613.708	35.832666
613.925	36.020795
614.141	36.262465
614.358	36.751779
614.575	37.213757
614.791	37.459456
615.008	37.533643
615.225	37.849986
615.441	38.008651
615.658	38.168818
615.874	38.278805
616.091	38.439167
616.307	38.610495
616.524	38.555180
616.740	38.441158
616.957	38.504316
617.173	38.746128
617.390	39.002900
617.606	39.130396
617.823	39.362790
618.039	39.655548
618.256	39.969671
618.472	40.063362
618.688	40.316720
618.905	40.737175
619.121	41.361967
619.337	41.817173
619.554	42.145859
619.770	42.456698
619.986	42.703494
620.202	42.767077
620.419	42.592415
620.635	42.591284
620.851	42.825277
621.067	43.112911
621.283	43.420013
621.499	43.514921
621.716	43.539992
621.932	43.540050
622.148	43.538091
622.364	43.768006
622.580	44.145970
622.796	44.716419
623.012	45.205995
623.228	45.555295
623.444	45.645251
623.660	45.689335
623.876	45.783862
624.092	46.136438
624.308	46.471424
624.524	46.925848
624.740	47.182912
624.955	47.258778
625.171	47.433905
625.387	47.624844
625.603	47.808841
625.819	48.152716
626.034	48.331292
626.250	48.348448
626.466	48.438702
626.682	48.726063
626.897	48.816890
627.113	48.979867
627.329	49.421679
627.544	49.824844
627.760	50.143325
627.976	50.389006
628.191	50.495495
628.407	50.684285
628.623	50.997610
628.838	51.171728
629.054	51.232438
629.269	51.342553
629.485	51.518674
629.700	51.711904
629.916	51.755211
630.131	51.681312
630.347	51.739918
630.562	51.947602
630.777	52.198938
630.993	52.369881
631.208	52.526054
631.424	52.811237
631.639	53.053280
631.854	53.155438
632.070	53.114439
632.285	53.217853
632.500	53.686489
632.715	54.102637
632.931	54.461241
633.146	54.629402
633.361	54.737101
633.576	54.973480
633.791	54.995620
634.007	55.073493
634.222	55.443498
634.437	55.957602
634.652	56.296854
634.867	56.413143
635.082	56.585398
635.297	56.597368
635.512	56.746817
635.727	57.039773
635.942	57.218082
636.157	57.517532
636.372	57.851209
636.587	58.054653
636.802	58.094681
637.017	58.066120
637.232	58.028740
637.447	58.229715
637.662	58.701215
637.876	59.066689
638.091	59.403903
638.306	59.846882
638.521	60.237920
638.736	60.507745
638.951	60.590196
639.165	60.769694
639.380	61.005327
639.595	61.234751
639.809	61.357756
640.024	61.421859
640.239	61.526203
640.453	61.605309
640.668	61.641152
640.883	61.653336
641.097	61.687078
641.312	61.858545
641.526	61.960693
641.741	62.068990
641.955	62.166483
642.170	62.063520
642.384	62.006123
642.599	62.253943
642.813	62.306557
643.028	62.118129
643.242	62.114267
643.457	62.379355
643.671	62.695391
643.885	63.024909
644.100	63.413259
644.314	63.890162
644.528	64.379002
644.743	64.750446
644.957	64.744081
645.171	65.185271
645.386	65.726655
645.600	65.983221
645.814	66.089130
646.028	66.139377
646.242	66.243996
646.457	66.349981
646.671	66.395269
646.885	66.469589
647.099	66.448090
647.313	66.673942
647.527	66.719224
647.741	66.889128
647.955	67.125027
648.169	67.037548
648.383	66.562941
648.597	66.069401
648.811	65.603043
649.025	65.140760
649.239	64.903316
649.453	64.919888
649.667	64.835559
649.881	64.575908
650.095	64.091031
650.309	63.623875
650.523	63.735903
650.737	64.307364
650.950	64.794020
651.164	65.368687
651.378	65.938885
651.592	66.284482
651.805	66.528758
652.019	66.744858
652.233	66.954152
652.447	67.209395
652.660	67.627169
652.874	67.676297
653.088	67.527941
653.301	67.493405
653.515	67.392977
653.728	67.267775
653.942	67.299616
654.156	67.430173
654.369	67.611419
654.583	67.937507
654.796	68.515588
655.010	68.924523
655.223	69.185903
655.437	69.399180
655.650	69.481717
655.863	69.428564
656.077	69.515166
656.290	69.625881
656.504	69.590087
656.717	69.523985
656.930	69.500357
657.144	69.241673
657.357	69.099385
657.570	69.242142
657.783	69.306269
657.997	69.518724
658.210	69.841818
658.423	69.985474
658.636	70.003927
658.849	69.909009
659.063	69.906364
659.276	70.033954
659.489	70.416728
659.702	70.683537
659.915	70.604961
660.128	70.642054
660.341	70.717472
660.554	70.836186
660.767	70.803936
660.980	70.858155
661.193	71.155506
661.406	71.305817
661.619	71.131916
661.832	70.742539
662.045	70.334097
662.258	70.394333
662.471	70.558261
662.684	70.485770
662.897	70.496269
663.110	70.579011
663.322	70.449757
663.535	70.545795
663.748	70.863325
663.961	71.217071
664.174	71.494033
664.386	71.653721
664.599	71.523473
664.812	71.492765
665.024	71.679150
665.237	71.795607
665.450	72.227085
665.662	72.871148
665.875	73.158455
666.088	73.243834
666.300	73.286316
666.513	73.654626
666.725	74.176405
666.938	74.723805
667.150	75.094774
667.363	75.219874
667.575	75.278748
667.788	75.194192
668.000	74.866191
668.213	74.622435
668.425	74.544352
668.638	74.513085
668.850	74.213037
669.062	74.043001
669.275	74.057571
669.487	74.009526
669.699	74.002050
669.912	74.028800
670.124	73.989104
670.336	74.095137
670.548	74.033459
670.761	73.912921
670.973	73.952078
671.185	74.002219
671.397	73.927403
671.609	73.681636
671.822	73.607761
672.034	73.702059
672.246	73.897464
672.458	74.147949
672.670	74.235132
672.882	74.372636
673.094	74.339651
673.306	74.404401
673.518	74.744518
673.730	75.048919
673.942	75.504674
674.154	75.812945
674.366	75.902655
674.578	75.789439
674.790	75.643727
675.002	75.710213
675.214	75.667249
675.425	75.743872
675.637	75.840194
675.849	75.756848
676.061	75.688583
676.273	75.359407
676.484	75.067032
676.696	74.921282
676.908	74.798765
677.120	74.648985
677.331	74.501064
677.543	74.641143
677.755	74.962650
677.966	75.129976
678.178	74.977175
678.389	74.858400
678.601	75.151865
678.813	75.352274
679.024	75.409948
679.236	75.506767
679.447	75.607370
679.659	75.756865
679.870	75.903059
680.082	75.841480
680.293	75.649416
680.505	75.862415
680.716	75.950962
680.927	75.754199
681.139	75.695670
681.350	75.750237
681.562	75.898970
681.773	76.015329
681.984	75.611634
682.196	74.962138
682.407	74.459027
682.618	74.268172
682.829	74.002069
683.041	73.928581
683.252	74.023989
683.463	74.208826
683.674	74.609385
683.885	74.819616
684.097	74.846251
684.308	75.024155
684.519	75.273649
684.730	75.654046
684.941	75.977192
685.152	76.368112
685.363	76.701970
685.574	76.818367
685.785	76.600689
685.996	76.117428
686.207	75.865046
686.418	75.900083
686.629	76.223610
686.840	76.676755
687.051	76.870062
687.262	76.777116
687.473	76.424834
687.684	76.079458
687.894	75.859542
688.105	75.807727
688.316	75.842699
688.527	75.825390
688.738	75.756668
688.948	75.494878
689.159	74.983278
689.370	74.504161
689.580	74.095564
689.791	73.788655
690.002	73.430487
690.212	73.053188
690.423	73.150610
690.634	73.524530
690.844	73.593575
691.055	73.585913
691.266	73.942439
691.476	74.674622
691.687	75.341618
691.897	75.548271
692.108	75.746804
692.318	76.203486
692.529	76.520683
692.739	76.444437
692.949	76.331573
693.160	76.441031
693.370	76.621301
693.581	76.549996
693.791	76.472638
694.001	76.522027
694.212	77.012686
694.422	77.491010
694.632	77.483061
694.843	77.362577
695.053	77.210317
695.263	76.980442
695.473	77.035691
695.683	77.363512
695.894	77.643367
696.104	77.617341
696.314	77.546937
696.524	77.474042
696.734	77.175245
696.944	77.189607
697.154	77.524141
697.365	77.689770
697.575	77.770258
697.785	77.672131
697.995	77.357153
698.205	77.273895
698.415	77.363686
698.625	77.405339
698.834	77.573576
699.044	78.052104
699.254	78.356219
699.464	78.640528
699.674	79.111114
699.884	79.286980
700.094	79.263012
700.304	79.191476
700.513	78.791575
700.723	78.055836
700.933	77.355975
701.143	76.655854
701.353	75.939500
701.562	75.438779
701.772	74.984172
701.982	74.683071
702.191	74.583759
702.401	74.482765
702.611	74.457886
702.820	74.613464
703.030	75.046495
703.239	75.371358
703.449	75.674025
703.659	76.206960
703.868	76.869981
704.078	77.416759
704.287	77.693664
704.497	77.709052
704.706	77.495766
704.916	77.130963
705.125	76.862589
705.334	76.719554
705.544	76.796774
705.753	76.961363
705.962	76.733878
706.172	76.145594
706.381	75.767838
706.590	75.600972
706.800	75.660346
707.009	76.061401
707.218	76.436842
707.428	76.649256
707.637	76.472153
707.846	76.267930
708.055	76.440785
708.264	77.052202
708.474	77.907477
708.683	78.403129
708.892	78.670798
709.101	78.759941
709.310	78.723894
709.519	78.742475
709.728	78.817225
709.937	79.321146
710.146	79.884517
710.355	79.710352
710.564	79.006594
710.773	78.135628
710.982	77.420442
711.191	76.845410
711.400	76.579365
711.609	76.659559
711.818	76.788112
712.027	76.794797
712.235	76.724122
712.444	76.434478
712.653	76.356913
712.862	76.627163
713.071	76.782251
713.279	76.717288
713.488	76.671359
713.697	76.757933
713.906	76.621204
714.114	76.414978
714.323	76.173888
714.532	75.835346
714.740	75.655570
714.949	75.625439
715.157	75.560075
715.366	75.659949
715.575	75.899492
715.783	76.117374
715.992	76.012930
716.200	75.790956
716.409	75.550246
716.617	75.351916
716.826	75.274400
717.034	75.255093
717.242	75.226511
717.451	75.396407
717.659	75.584093
717.868	75.809734
718.076	75.863668
718.284	75.893844
718.493	75.901468
718.701	75.854753
718.909	76.077334
719.118	76.338509
719.326	76.349567
719.534	76.159268
719.742	75.772211
719.951	75.500433
720.159	75.153850
720.367	74.949346
720.575	74.901412
720.783	74.861653
720.991	74.859582
721.199	74.739044
721.408	74.573360
721.616	74.803010
721.824	75.113308
722.032	75.079707
722.240	74.921011
722.448	74.917603
722.656	74.964807
722.864	74.856831
723.072	74.692204
723.280	74.530324
723.487	74.040044
723.695	73.577922
723.903	73.077677
724.111	72.574348
724.319	72.368464
724.527	72.327791
724.735	72.542252
724.942	72.732844
725.150	72.713381
725.358	72.661543
725.566	72.801593
725.773	73.326974
725.981	73.652831
726.189	73.645063
726.396	73.748766
726.604	73.860564
726.812	73.690906
727.019	73.106971
727.227	72.360383
727.435	71.989483
727.642	72.070121
727.850	72.082275
728.057	71.762864
728.265	71.452066
728.472	71.355944
728.680	71.107374
728.887	70.792598
729.095	70.689000
729.302	70.759466
729.509	70.964599
729.717	71.206035
729.924	71.339607
730.132	71.258480
730.339	71.293058
730.546	71.496534
730.753	71.458143
730.961	71.409087
731.168	71.424030
731.375	71.244861
731.583	71.003411
731.790	70.980349
731.997	71.163187
732.204	71.195977
732.411	71.261178
732.618	71.184900
732.826	70.983641
733.033	71.048639
733.240	71.207957
733.447	71.373451
733.654	71.620480
733.861	71.791078
734.068	71.723033
734.275	71.315411
734.482	70.859509
734.689	70.492069
734.896	70.313397
735.103	70.132579
735.310	69.790761
735.517	69.516383
735.724	69.434463
735.931	69.657811
736.137	69.947693
736.344	70.092012
736.551	70.017349
736.758	69.820032
736.965	69.791548
737.171	69.915071
737.378	70.088671
737.585	70.279031
737.792	70.560958
737.998	70.924328
738.205	70.928431
738.412	70.479824
738.618	70.074353
738.825	70.121501
739.032	70.442161
739.238	70.748144
739.445	70.863677
739.651	70.677479
739.858	70.431562
740.064	69.885568
740.271	69.032092
740.477	68.452834
740.684	68.310004
740.890	68.128443
741.097	67.673643
741.303	67.062504
741.510	66.502491
741.716	66.065160
741.922	65.815653
742.129	65.553995
742.335	65.431075
742.541	65.318524
742.748	65.140422
742.954	65.220197
743.160	65.338691
743.366	65.405371
743.573	65.400930
743.779	65.332662
743.985	65.390775
744.191	65.607551
744.397	65.990996
744.604	66.100934
744.810	66.113689
745.016	66.284409
745.222	66.331588
745.428	66.517582
745.634	66.825850
745.840	67.241191
746.046	67.545464
746.252	67.583760
746.458	67.366163
746.664	66.991930
746.870	66.699150
747.076	66.210144
747.282	65.658455
747.488	65.469216
747.694	65.440644
747.900	65.533116
748.105	65.656057
748.311	65.667311
748.517	65.632540
748.723	65.705758
748.929	65.617003
749.134	65.358866
749.340	65.248854
749.546	65.031976
749.752	64.450979
749.957	63.713201
750.163	63.018455
750.369	62.331317
750.574	61.807707
750.780	61.416637
750.985	60.892057
751.191	60.609990
751.397	60.786301
751.602	61.125801
751.808	61.372626
752.013	61.571571
752.219	61.672669
752.424	61.492931
752.630	61.159627
752.835	60.843097
753.041	60.678703
753.246	60.743083
753.451	60.751384
753.657	60.758463
753.862	60.784299
754.067	60.613834
754.273	60.415279
754.478	60.320888
754.683	60.214210
754.889	60.186602
755.094	60.163083
755.299	59.940819
755.504	59.544342
755.710	59.078038
755.915	58.519015
756.120	57.749285
756.325	57.174664
756.530	56.542377
756.735	55.844542
756.940	55.381890
757.146	55.119584
757.351	54.877429
757.556	54.808048
757.761	54.919104
757.966	55.196569
758.171	55.317194
758.376	55.439815
758.581	55.420749
758.786	55.389935
758.990	55.470388
759.195	55.499685
759.400	55.410284
759.605	55.137108
759.810	54.701783
760.015	54.260939
760.220	53.702655
760.424	53.372685
760.629	53.108002
760.834	52.867595
761.039	52.854151
761.244	52.790008
761.448	52.611639
761.653	52.325432
761.858	52.040082
762.062	51.698678
762.267	51.403538
762.472	51.281193
762.676	51.264024
762.881	51.400020
763.085	51.543145
763.290	51.456378
763.494	51.150027
763.699	50.732125
763.903	50.320669
764.108	50.067952
764.312	49.956697
764.517	49.760211
764.721	49.401003
764.926	48.845275
765.130	48.091524
765.335	47.526604
765.539	47.019357
765.743	46.675570
765.948	46.439196
766.152	46.121091
766.356	45.768457
766.560	45.517316
766.765	45.440735
766.969	45.357800
767.173	45.263748
767.377	45.328813
767.582	45.376737
767.786	45.355295
767.990	45.124486
768.194	44.912079
768.398	44.836307
768.602	44.695057
768.806	44.389837
769.010	43.960577
769.215	43.531636
769.419	43.154232
769.623	42.809832
769.827	42.259492
770.031	41.610645
770.234	41.059338
770.438	40.417786
770.642	39.907273
770.846	39.516328
771.050	39.071501
771.254	38.717363
771.458	38.521008
771.662	38.236646
771.866	37.857909
772.069	37.648041
772.273	37.544350
772.477	37.457444
772.681	37.407387
772.885	37.213622
773.088	36.877500
773.292	36.614533
773.496	36.171986
773.699	35.601730
773.903	35.185909
774.107	34.818732
774.310	34.382044
774.514	33.946923
774.717	33.681083
774.921	33.550645
775.124	33.514293
775.328	33.563585
775.531	33.576129
775.735	33.479251
775.938	33.324652
776.142	32.813380
776.345	32.312704
776.549	31.984368
776.752	31.704722
776.956	31.265226
777.159	30.793710
777.362	30.157519
777.566	29.427708
777.769	28.785135
777.972	28.296615
778.176	27.885023
778.379	27.659595
778.582	27.440014
778.785	27.174447
778.989	26.836406
779.192	26.457370
779.395	26.095100
779.598	25.795347
779.801	25.538781
780.004	25.036829
780.207	24.545155
780.411	24.238232
780.614	24.131862
780.817	23.962452
781.020	23.642128
781.223	23.263385
781.426	22.953135
781.629	22.619754
781.832	22.298264
782.035	21.966462
782.238	21.747794
782.440	21.599803
782.643	21.331352
782.846	20.891018
783.049	20.394092
783.252	19.954855
783.455	19.618047
783.658	19.352702
783.860	19.121225
784.063	18.813083
784.266	18.656633
784.469	18.504759
784.671	18.278861
784.874	18.108965
785.077	17.996328
785.279	17.926617
785.482	17.863431
785.685	17.877359
785.887	17.803875
786.090	17.560387
786.293	17.306644
786.495	17.030448
786.698	16.745901
786.900	16.479955
787.103	16.126436
787.305	15.755976
787.508	15.548337
787.710	15.261331
787.913	14.842378
788.115	14.466264
788.317	14.216259
788.520	14.131906
788.722	13.983141
788.924	13.825971
789.127	13.678910
789.329	13.555369
789.531	13.365518
789.734	13.178961
789.936	13.100469
790.138	12.967949
790.340	12.805886
790.543	12.703077
790.745	12.519261
790.947	12.309967
791.149	12.138174
791.351	11.935018
791.553	11.711363
791.756	11.588124
791.958	11.356175
792.160	11.138271
792.362	10.991727
792.564	10.932605
792.766	10.822276
792.968	10.694346
793.170	10.624698
793.372	10.587713
793.574	10.505785
793.776	10.554628
793.978	10.530615
794.180	10.524321
794.381	10.579622
794.583	10.670972
794.785	10.694958
794.987	10.672968
795.189	10.749532
795.391	10.778976
795.592	10.806690
795.794	10.821123
795.996	10.759172
796.198	10.747441
796.399	10.818486
796.601	10.780445
796.803	10.732526
797.004	10.786982
797.206	10.869345
797.407	10.793150
797.609	10.736784
797.811	10.746640
798.012	10.834442
798.214	10.963375
798.415	11.050438
798.617	11.027229
798.818	11.057605
799.020	11.096579
799.221	11.044237
799.423	11.035409
799.624	11.097752
799.826	11.215511
800.027	11.409036
800.228	11.590787
800.430	11.708943
800.631	11.853640
800.832	11.953620
801.034	12.052149
801.235	12.289532
801.436	12.518687
801.637	12.733086
801.839	13.013624
802.040	13.189249
802.241	13.132868
802.442	13.227910
802.643	13.225666
802.844	13.287664
803.046	13.440769
803.247	13.583404
803.448	13.633250
803.649	13.787511
803.850	13.911369
804.051	14.109333
804.252	14.340386
804.453	14.707257
804.654	14.930256
804.855	15.265463
805.056	15.554310
805.257	15.857826
805.458	16.136646
805.659	16.317254
805.859	16.479684
806.060	16.687119
806.261	16.846672
806.462	16.869710
806.663	16.980009
806.864	17.174956
807.064	17.364809
807.265	17.576264
807.466	17.707688
807.667	17.808287
807.867	18.128050
808.068	18.572357
808.269	18.807390
808.469	18.996177
808.670	19.378188
808.870	19.651119
809.071	19.810815
809.272	19.880813
809.472	20.004095
809.673	20.345376
809.873	20.619910
810.074	20.760084
810.274	20.772770
810.475	21.037857
810.675	21.313836
810.876	21.546004
811.076	21.747337
811.276	22.027185
811.477	22.494733
811.677	22.823821
811.878	22.932184
812.078	23.161756
812.278	23.402995
812.479	23.740744
812.679	23.926422
812.879	24.119395
813.079	24.305806
813.280	24.554909
813.480	24.685867
813.680	24.740089
813.880	25.007396
814.080	25.412644
814.280	25.814323
814.480	26.196897
814.681	26.398337
814.881	26.773557
815.081	27.150368
815.281	27.601657
815.481	28.018842
815.681	28.492681
815.881	28.798759
816.081	29.004291
816.281	29.023106
816.481	29.111759
816.681	29.296672
816.880	29.616180
817.080	29.842348
817.280	30.006913
817.480	30.121628
817.680	30.324095
817.880	30.541769
818.080	30.880924
818.279	31.002888
818.479	31.331353
818.679	31.677580
818.879	31.959865
819.078	32.007679
819.278	31.892461
819.478	31.972315
819.677	32.160486
819.877	32.437161
820.077	32.750479
820.276	33.010220
820.476	33.515707
820.675	34.016757
820.875	34.379926
821.074	34.748963
821.274	35.188106
821.473	35.703322
821.673	36.154458
821.872	36.589918
822.072	36.818479
822.271	36.809965
822.471	36.888329
822.670	36.899115
822.869	36.794344
823.069	36.984235
823.268	37.266412
823.467	37.687405
823.667	38.178759
823.866	38.499670
824.065	38.661179
824.265	38.830381
824.464	39.277758
824.663	39.715880
824.862	40.198220
825.061	40.805834
825.261	41.000314
825.460	41.066553
825.659	41.030906
825.858	40.899253
826.057	40.874238
826.256	40.957463
826.455	41.129747
826.654	41.375773
826.853	41.646376
827.052	41.712210
827.251	41.618757
