Date	2025年07月03日木曜日 09時59分23秒
Spectrometers	SR401765
ダーク	使用
リファレンス	使用
積分時間[msec]	300
平均回数	1
ｽﾑｰｼﾞﾝｸﾞ	5
Electrical Dark	USE
ピクセル数	3648
計測モード	反射率
保存開始波長[nm]	598.495
保存終了波長[nm]	1274.802
保存ﾋﾟｯﾁ波長[nm]	全波長

>>>>>>>>>> Data Start <<<<<<<<<<<<
598.495	0.000000
598.713	0.000000
598.931	0.000000
599.148	0.000000
599.366	-73.070050
599.584	39.590838
599.802	57.574264
600.020	0.000000
600.238	0.000000
600.455	0.000000
600.673	0.000000
600.891	7.993865
601.109	12.551954
601.326	14.416918
601.544	14.941439
601.762	15.281500
601.979	15.207505
602.197	15.383689
602.415	15.272736
602.632	15.107348
602.850	15.078848
603.067	15.069619
603.285	15.169162
603.502	15.270672
603.720	15.356356
603.938	15.378136
604.155	15.441555
604.372	15.601566
604.590	15.764121
604.807	15.954812
605.025	16.267590
605.242	16.503917
605.460	16.732654
605.677	16.910072
605.894	17.094747
606.112	17.311894
606.329	17.496479
606.546	17.656142
606.764	17.733542
606.981	17.757248
607.198	17.631873
607.415	17.735944
607.633	17.931818
607.850	18.088036
608.067	18.307778
608.284	18.440317
608.501	18.466999
608.718	18.553630
608.935	18.712805
609.153	18.833574
609.370	19.092445
609.587	19.539709
609.804	19.569511
610.021	19.514702
610.238	19.633666
610.455	19.660766
610.672	19.790061
610.889	19.969091
611.106	20.206705
611.323	20.230292
611.540	20.294676
611.756	20.403142
611.973	20.477485
612.190	20.696771
612.407	20.987551
612.624	21.189261
612.841	21.432154
613.057	21.745751
613.274	22.014846
613.491	22.176780
613.708	22.359357
613.925	22.511753
614.141	22.613971
614.358	22.897697
614.575	23.188805
614.791	23.482830
615.008	23.848433
615.225	24.199515
615.441	24.373025
615.658	24.504050
615.874	24.644564
616.091	24.921785
616.307	25.176327
616.524	25.404246
616.740	25.561938
616.957	25.757293
617.173	25.925573
617.390	26.091309
617.606	26.225616
617.823	26.454644
618.039	26.627719
618.256	26.893986
618.472	27.173370
618.688	27.526280
618.905	27.891839
619.121	28.128789
619.337	28.337225
619.554	28.696474
619.770	28.913033
619.986	29.174493
620.202	29.322199
620.419	29.468530
620.635	29.747014
620.851	30.022165
621.067	30.206670
621.283	30.299245
621.499	30.572000
621.716	30.939043
621.932	31.080815
622.148	31.193023
622.364	31.339852
622.580	31.617979
622.796	32.076165
623.012	32.343579
623.228	32.537053
623.444	32.677785
623.660	32.902629
623.876	33.051575
624.092	33.126508
624.308	33.317241
624.524	33.658566
624.740	33.901815
624.955	34.041601
625.171	34.213190
625.387	34.543804
625.603	34.854057
625.819	35.159055
626.034	35.426249
626.250	35.792090
626.466	36.166931
626.682	36.521526
626.897	36.770974
627.113	37.063629
627.329	37.497078
627.544	37.781462
627.760	37.828744
627.976	38.066886
628.191	38.387174
628.407	38.755463
628.623	39.080463
628.838	39.315591
629.054	39.465053
629.269	39.632851
629.485	39.817306
629.700	39.959143
629.916	40.150761
630.131	40.418438
630.347	40.545377
630.562	40.640976
630.777	40.743850
630.993	40.903390
631.208	41.088318
631.424	41.268246
631.639	41.352317
631.854	41.387132
632.070	41.510958
632.285	41.734112
632.500	42.099162
632.715	42.323306
632.931	42.693315
633.146	42.933340
633.361	42.891545
633.576	42.994541
633.791	43.104429
634.007	43.305675
634.222	43.655233
634.437	44.112316
634.652	44.513573
634.867	44.734982
635.082	45.172087
635.297	45.407374
635.512	45.674860
635.727	46.127999
635.942	46.554731
636.157	47.109954
636.372	47.607930
636.587	47.975311
636.802	48.026034
637.017	47.963623
637.232	47.895449
637.447	47.899850
637.662	48.078311
637.876	48.223895
638.091	48.436001
638.306	48.643069
638.521	48.630030
638.736	48.670810
638.951	48.719581
639.165	48.862494
639.380	48.955655
639.595	49.179090
639.809	49.350780
640.024	49.473818
640.239	49.586995
640.453	49.594966
640.668	49.590339
640.883	49.870654
641.097	50.143838
641.312	50.357423
641.526	50.460987
641.741	50.740192
641.955	51.041673
642.170	51.235567
642.384	51.373298
642.599	51.666708
642.813	51.830616
643.028	52.014041
643.242	52.091538
643.457	52.133699
643.671	52.228887
643.885	52.440135
644.100	52.713181
644.314	52.952894
644.528	53.169321
644.743	53.566036
644.957	53.943739
645.171	54.664067
645.386	55.280438
645.600	55.731049
645.814	56.192635
646.028	56.704194
646.242	57.266758
646.457	57.598128
646.671	57.803390
646.885	58.073653
647.099	58.236561
647.313	58.336146
647.527	58.057673
647.741	57.812658
647.955	57.794838
648.169	57.626277
648.383	57.242639
648.597	56.956835
648.811	56.933808
649.025	57.014699
649.239	57.212291
649.453	57.369471
649.667	57.583110
649.881	57.966219
650.095	58.098016
650.309	58.173497
650.523	58.644937
650.737	59.218099
650.950	59.560859
651.164	59.725375
651.378	59.783301
651.592	59.780686
651.805	59.763123
652.019	59.676241
652.233	59.513523
652.447	59.636416
652.660	59.856311
652.874	59.796218
653.088	59.704469
653.301	59.766271
653.515	59.968870
653.728	60.350498
653.942	60.661295
654.156	60.874394
654.369	61.147847
654.583	61.471332
654.796	61.788067
655.010	61.924389
655.223	62.016441
655.437	62.203747
655.650	62.269239
655.863	62.130129
656.077	62.102478
656.290	62.146289
656.504	62.197566
656.717	62.372341
656.930	62.675622
657.144	62.884313
657.357	63.068488
657.570	63.358789
657.783	63.599822
657.997	63.879684
658.210	64.216258
658.423	64.444182
658.636	64.554609
658.849	64.809887
659.063	64.934494
659.276	64.931227
659.489	64.935398
659.702	64.949496
659.915	64.888970
660.128	64.886748
660.341	64.893586
660.554	64.865470
660.767	64.639439
660.980	64.572279
661.193	64.539347
661.406	64.398554
661.619	64.223583
661.832	64.133427
662.045	64.120899
662.258	64.304128
662.471	64.395061
662.684	64.436931
662.897	64.537368
663.110	64.744153
663.322	64.918915
663.535	65.108007
663.748	65.414915
663.961	65.645355
664.174	65.891843
664.386	66.105463
664.599	66.115560
664.812	66.193032
665.024	66.324557
665.237	66.642485
665.450	67.012352
665.662	67.318919
665.875	67.570178
666.088	67.657625
666.300	67.840183
666.513	68.029790
666.725	68.136920
666.938	68.264151
667.150	68.405682
667.363	68.359911
667.575	68.183252
667.788	67.982099
668.000	67.871728
668.213	67.790612
668.425	67.761478
668.638	67.737199
668.850	67.779077
669.062	67.962566
669.275	68.159839
669.487	68.235509
669.699	68.481934
669.912	68.733926
670.124	68.864936
670.336	68.854504
670.548	68.831750
670.761	69.017149
670.973	69.319641
671.185	69.397574
671.397	69.351203
671.609	69.192472
671.822	69.288980
672.034	69.490067
672.246	69.581709
672.458	69.694378
672.670	69.757370
672.882	69.809654
673.094	69.731366
673.306	69.687573
673.518	69.794587
673.730	69.979702
673.942	70.308220
674.154	70.366480
674.366	70.255961
674.578	70.148259
674.790	70.143097
675.002	70.275654
675.214	70.279994
675.425	70.390553
675.637	70.425586
675.849	70.481415
676.061	70.565466
676.273	70.519728
676.484	70.571380
676.696	70.703185
676.908	70.970057
677.120	71.269047
677.331	71.645182
677.543	71.945171
677.755	72.200722
677.966	72.444137
678.178	72.488919
678.389	72.361745
678.601	72.186253
678.813	71.960463
679.024	71.908912
679.236	71.815820
679.447	71.589566
679.659	71.269543
679.870	71.341801
680.082	71.375051
680.293	71.283768
680.505	71.144182
680.716	71.007830
680.927	71.217942
681.139	71.453501
681.350	71.455637
681.562	71.424090
681.773	71.568714
681.984	71.632743
682.196	71.410544
682.407	71.270437
682.618	71.355101
682.829	71.652363
683.041	72.017773
683.252	72.086284
683.463	72.192412
683.674	72.576793
683.885	72.884091
684.097	72.761513
684.308	72.628195
684.519	72.623749
684.730	72.586190
684.941	72.561659
685.152	72.547706
685.363	72.592395
685.574	72.811174
685.785	73.104392
685.996	73.040152
686.207	72.961103
686.418	73.182613
686.629	73.533124
686.840	73.756077
687.051	73.739232
687.262	73.426322
687.473	73.073044
687.684	72.915747
687.894	72.613101
688.105	72.202727
688.316	72.023701
688.527	71.966306
688.738	72.001794
688.948	71.879232
689.159	71.775769
689.370	71.953852
689.580	72.452816
689.791	72.878465
690.002	73.023342
690.212	73.310095
690.423	73.651591
690.634	73.882839
690.844	74.082478
691.055	74.247289
691.266	74.405149
691.476	74.625391
691.687	74.815036
691.897	74.755874
692.108	74.757374
692.318	74.679803
692.529	74.440820
692.739	74.310133
692.949	74.343525
693.160	74.360114
693.370	74.254540
693.581	74.327602
693.791	74.373428
694.001	74.264724
694.212	74.212903
694.422	74.215498
694.632	74.342527
694.843	74.449668
695.053	74.544050
695.263	74.449664
695.473	74.227655
695.683	74.061593
695.894	73.827902
696.104	73.593538
696.314	73.517803
696.524	73.435180
696.734	73.250308
696.944	73.222984
697.154	73.383967
697.365	73.322274
697.575	73.456133
697.785	73.779534
697.995	74.035106
698.205	74.316855
698.415	74.642666
698.625	74.918811
698.834	75.273086
699.044	75.653084
699.254	75.758891
699.464	75.829676
699.674	75.954414
699.884	75.684266
700.094	75.452724
700.304	75.344593
700.513	75.211811
700.723	75.007394
700.933	74.806889
701.143	74.509303
701.353	74.168263
701.562	73.949293
701.772	73.578307
701.982	73.267482
702.191	73.318706
702.401	73.281663
702.611	73.279708
702.820	73.226807
703.030	73.282260
703.239	73.376494
703.449	73.596710
703.659	74.111270
703.868	74.629930
704.078	75.018258
704.287	75.411014
704.497	75.636734
704.706	75.774024
704.916	76.032523
705.125	76.222051
705.334	76.288807
705.544	76.336413
705.753	76.283287
705.962	75.973513
706.172	75.641036
706.381	75.685341
706.590	75.675757
706.800	75.655594
707.009	75.767519
707.218	75.699828
707.428	75.645673
707.637	75.475466
707.846	75.236585
708.055	75.140604
708.264	75.142288
708.474	75.236869
708.683	75.192040
708.892	75.099326
709.101	74.996168
709.310	74.883861
709.519	74.725420
709.728	74.557296
709.937	74.599957
710.146	74.669066
710.355	74.524502
710.564	74.330699
710.773	74.192350
710.982	73.982932
711.191	73.926029
711.400	73.864361
711.609	73.885499
711.818	74.032548
712.027	74.263161
712.235	74.446018
712.444	74.526154
712.653	74.575956
712.862	74.640487
713.071	74.622455
713.279	74.693529
713.488	74.655983
713.697	74.814191
713.906	74.914741
714.114	74.875947
714.323	74.626849
714.532	74.338513
714.740	74.094617
714.949	74.097424
715.157	74.256840
715.366	74.378404
715.575	74.397182
715.783	74.408924
715.992	74.355304
716.200	74.179232
716.409	73.919841
716.617	73.837973
716.826	73.844634
717.034	73.844830
717.242	73.763783
717.451	73.629407
717.659	73.499930
717.868	73.373794
718.076	73.352842
718.284	73.235774
718.493	73.110872
718.701	73.098118
718.909	73.282956
719.118	73.401471
719.326	73.531955
719.534	73.623556
719.742	73.479880
719.951	73.281730
720.159	73.102967
720.367	73.004840
720.575	72.998815
720.783	73.076652
720.991	73.175042
721.199	73.094496
721.408	73.078903
721.616	73.068668
721.824	73.153782
722.032	73.309803
722.240	73.508798
722.448	73.773232
722.656	74.054029
722.864	74.207667
723.072	74.284745
723.280	74.270506
723.487	74.086755
723.695	73.811008
723.903	73.631589
724.111	73.325397
724.319	73.169799
724.527	73.027049
724.735	72.940358
724.942	72.731684
725.150	72.543640
725.358	72.506883
725.566	72.612788
725.773	72.873040
725.981	73.069118
726.189	73.046265
726.396	73.019136
726.604	72.977656
726.812	72.933291
727.019	72.849462
727.227	72.765135
727.435	72.528455
727.642	72.249123
727.850	71.956119
728.057	71.588837
728.265	71.478249
728.472	71.680941
728.680	71.917706
728.887	71.958107
729.095	71.987098
729.302	72.084115
729.509	72.176658
729.717	72.318865
729.924	72.430412
730.132	72.528050
730.339	72.610551
730.546	72.527216
730.753	72.405500
730.961	72.203249
731.168	72.026501
731.375	71.850147
731.583	71.658181
731.790	71.502012
731.997	71.481091
732.204	71.327648
732.411	71.100212
732.618	71.095787
732.826	71.127818
733.033	71.075034
733.240	71.038163
733.447	71.038275
733.654	71.012947
733.861	70.922335
734.068	70.804252
734.275	70.655125
734.482	70.668748
734.689	70.632700
734.896	70.432589
735.103	70.337390
735.310	70.230507
735.517	70.260040
735.724	70.561619
735.931	70.991677
736.137	71.237080
736.344	71.337228
736.551	71.341392
736.758	71.254564
736.965	71.347235
737.171	71.442106
737.378	71.443391
737.585	71.390079
737.792	71.250125
737.998	70.974102
738.205	70.543061
738.412	70.252451
738.618	70.190167
738.825	70.404898
739.032	70.677034
739.238	70.760661
739.445	70.804711
739.651	70.727151
739.858	70.698354
740.064	70.649159
740.271	70.621927
740.477	70.707881
740.684	70.762652
740.890	70.686371
741.097	70.382563
741.303	70.095231
741.510	69.907907
741.716	69.817773
741.922	69.841734
742.129	69.904991
742.335	70.080108
742.541	69.980523
742.748	69.793299
742.954	69.645979
743.160	69.487633
743.366	69.414004
743.573	69.146805
743.779	68.868092
743.985	68.614063
744.191	68.366030
744.397	68.109133
744.604	67.580179
744.810	67.251789
745.016	67.166971
745.222	67.187962
745.428	67.209382
745.634	67.188049
745.840	67.414694
746.046	67.638048
746.252	67.873487
746.458	67.974742
746.664	68.033720
746.870	68.343432
747.076	68.449558
747.282	68.475324
747.488	68.561803
747.694	68.695920
747.900	68.810143
748.105	68.781882
748.311	68.679554
748.517	68.517278
748.723	68.474579
748.929	68.394137
749.134	68.251434
749.340	68.229487
749.546	68.118665
749.752	67.863110
749.957	67.557475
750.163	67.098315
750.369	66.690687
750.574	66.456542
750.780	66.309354
750.985	66.162865
751.191	66.011237
751.397	65.897143
751.602	65.812695
751.808	65.681791
752.013	65.679614
752.219	65.772494
752.424	66.053341
752.630	66.149221
752.835	66.176033
753.041	66.204144
753.246	66.125362
753.451	65.986969
753.657	65.770574
753.862	65.585603
754.067	65.357657
754.273	64.973406
754.478	64.668528
754.683	64.275386
754.889	64.148644
755.094	64.094229
755.299	63.958836
755.504	64.013551
755.710	64.232192
755.915	64.428187
756.120	64.444628
756.325	64.439514
756.530	64.508286
756.735	64.368670
756.940	64.205701
757.146	64.034777
757.351	63.861394
757.556	63.821144
757.761	63.691556
757.966	63.521810
758.171	63.339608
758.376	63.218774
758.581	63.101240
758.786	63.069667
758.990	62.930797
759.195	62.840250
759.400	62.628826
759.605	62.264489
759.810	61.965774
760.015	61.770604
760.220	61.376354
760.424	60.870600
760.629	60.367345
760.834	60.087124
761.039	59.814470
761.244	59.760442
761.448	59.744979
761.653	59.757803
761.858	59.740716
762.062	59.651160
762.267	59.439614
762.472	59.481077
762.676	59.706494
762.881	59.996740
763.085	60.092747
763.290	59.944535
763.494	59.709794
763.699	59.467443
763.903	59.319351
764.108	59.285339
764.312	59.076823
764.517	58.839145
764.721	58.460314
764.926	58.056088
765.130	57.653927
765.335	57.363512
765.539	57.288549
765.743	57.240426
765.948	57.178369
766.152	57.003427
766.356	56.810460
766.560	56.913174
766.765	57.155719
766.969	57.378729
767.173	57.677569
767.377	57.890139
767.582	57.963610
767.786	57.864346
767.990	57.688561
768.194	57.605819
768.398	57.563151
768.602	57.386522
768.806	57.023443
769.010	56.631346
769.215	56.220927
769.419	55.688417
769.623	55.339028
769.827	55.069017
770.031	54.754117
770.234	54.372230
770.438	53.914890
770.642	53.527192
770.846	53.355317
771.050	53.169774
771.254	52.973675
771.458	52.907301
771.662	52.824664
771.866	52.553031
772.069	52.291376
772.273	52.181727
772.477	52.160735
772.681	52.068674
772.885	51.851415
773.088	51.441799
773.292	50.935306
773.496	50.500135
773.699	50.108229
773.903	49.779348
774.107	49.574034
774.310	49.368658
774.514	49.077918
774.717	48.861084
774.921	48.755693
775.124	48.654354
775.328	48.579403
775.531	48.577203
775.735	48.449370
775.938	48.223300
776.142	47.912474
776.345	47.706441
776.549	47.511205
776.752	47.439073
776.956	47.291856
777.159	47.066295
777.362	46.816668
777.566	46.627231
777.769	46.564128
777.972	46.383745
778.176	46.143691
778.379	46.093418
778.582	45.900321
778.785	45.804357
778.989	45.673785
779.192	45.383093
779.395	45.080139
779.598	44.821775
779.801	44.551297
780.004	44.135955
780.207	43.910881
780.411	43.814384
780.614	43.609057
780.817	43.333153
781.020	42.898269
781.223	42.262570
781.426	41.933111
781.629	41.707935
781.832	41.492715
782.035	41.193806
782.238	40.837203
782.440	40.415122
782.643	39.912825
782.846	39.451109
783.049	39.058517
783.252	38.697921
783.455	38.578353
783.658	38.317546
783.860	37.854508
784.063	37.438634
784.266	37.199984
784.469	36.950813
784.671	36.656487
784.874	36.551521
785.077	36.483915
785.279	36.331234
785.482	36.150888
785.685	35.914546
785.887	35.615434
786.090	35.344573
786.293	35.114230
786.495	34.858449
786.698	34.588646
786.900	34.305815
787.103	33.965654
787.305	33.565134
787.508	33.298268
787.710	32.865900
787.913	32.374228
788.115	32.026029
788.317	31.928193
788.520	31.741324
788.722	31.446179
788.924	31.190356
789.127	31.022997
789.329	30.735163
789.531	30.366617
789.734	30.032413
789.936	29.855114
790.138	29.591197
790.340	29.215923
790.543	28.732892
790.745	28.166561
790.947	27.666264
791.149	27.244784
791.351	26.791600
791.553	26.452566
791.756	26.217036
791.958	25.854296
792.160	25.421898
792.362	25.214403
792.564	25.022356
792.766	24.798903
792.968	24.717647
793.170	24.602690
793.372	24.366417
793.574	24.032070
793.776	23.618695
793.978	23.190750
794.180	22.940387
794.381	22.814945
794.583	22.546693
794.785	22.261520
794.987	21.955472
795.189	21.606157
795.391	21.346018
795.592	21.037577
795.794	20.757821
795.996	20.489179
796.198	20.219522
796.399	19.936230
796.601	19.655249
796.803	19.339868
797.004	19.029046
797.206	18.804158
797.407	18.632131
797.609	18.369105
797.811	18.156399
798.012	17.963976
798.214	17.769056
798.415	17.549628
798.617	17.273842
798.818	17.060859
799.020	16.892139
799.221	16.705882
799.423	16.449849
799.624	16.079094
799.826	15.778423
800.027	15.580285
800.228	15.517239
800.430	15.367666
800.631	15.194343
800.832	14.931671
801.034	14.685136
801.235	14.506247
801.436	14.309474
801.637	14.120635
801.839	14.049081
802.040	13.874292
802.241	13.584743
802.442	13.275971
802.643	13.035331
802.844	12.883965
803.046	12.740463
803.247	12.526932
803.448	12.312774
803.649	12.083314
803.850	11.939852
804.051	11.815958
804.252	11.661951
804.453	11.725977
804.654	11.655465
804.855	11.553758
805.056	11.442572
805.257	11.373616
805.458	11.325133
805.659	11.251016
805.859	11.138477
806.060	10.978052
806.261	10.912557
806.462	10.775982
806.663	10.559721
806.864	10.398671
807.064	10.392350
807.265	10.400317
807.466	10.320664
807.667	10.205607
807.867	10.102508
808.068	10.197371
808.269	10.229066
808.469	10.072816
808.670	10.098684
808.870	10.071937
809.071	9.962280
809.272	9.824082
809.472	9.622517
809.673	9.578602
809.873	9.644442
810.074	9.661020
810.274	9.581858
810.475	9.596505
810.675	9.585000
810.876	9.535031
811.076	9.585631
811.276	9.692542
811.477	9.762692
811.677	9.820715
811.878	9.874368
812.078	9.909181
812.278	9.866552
812.479	10.007783
812.679	10.042838
812.879	10.209741
813.079	10.403840
813.280	10.594160
813.480	10.793576
813.680	10.802654
813.880	10.820223
814.080	10.906237
814.280	10.995926
814.480	11.207337
814.681	11.239953
814.881	11.436956
815.081	11.504670
815.281	11.575993
815.481	11.653437
815.681	11.710422
815.881	11.826595
816.081	12.191562
816.281	12.255964
816.481	12.295780
816.681	12.356195
816.880	12.487471
817.080	12.561620
817.280	12.669939
817.480	12.803863
817.680	12.845630
817.880	12.970497
818.080	13.220200
818.279	13.216289
818.479	13.446759
818.679	13.670868
818.879	13.912928
819.078	14.176761
819.278	14.313931
819.478	14.586703
819.677	14.821414
819.877	14.989645
820.077	15.136503
820.276	15.306617
820.476	15.545973
820.675	15.785359
820.875	16.050900
821.074	16.196547
821.274	16.406380
821.473	16.719902
821.673	16.898395
821.872	17.110137
822.072	17.337095
822.271	17.537809
822.471	17.774082
822.670	18.053034
822.869	18.200095
823.069	18.353386
823.268	18.584153
823.467	18.739286
823.667	18.783910
823.866	18.920209
824.065	19.065169
824.265	19.274314
824.464	19.546494
824.663	19.739730
824.862	19.883662
825.061	20.031551
825.261	20.248075
825.460	20.612044
825.659	20.833571
825.858	21.045471
826.057	21.261018
826.256	21.483613
826.455	21.638681
826.654	21.828973
826.853	22.092949
827.052	22.359650
827.251	22.835225
827.450	23.220609
