Date	2025年07月03日木曜日 10時01分31秒
Spectrometers	SR401765
ダーク	使用
リファレンス	使用
積分時間[msec]	300
平均回数	1
ｽﾑｰｼﾞﾝｸﾞ	5
Electrical Dark	USE
ピクセル数	3648
計測モード	反射率
保存開始波長[nm]	598.495
保存終了波長[nm]	1274.802
保存ﾋﾟｯﾁ波長[nm]	全波長

>>>>>>>>>> Data Start <<<<<<<<<<<<
598.495	0.000000
598.713	0.000000
598.931	0.000000
599.148	0.000000
599.366	128.952270
599.584	80.684597
599.802	146.892751
600.020	0.000000
600.238	0.000000
600.455	0.000000
600.673	0.000000
600.891	26.973607
601.109	29.650198
601.326	30.588602
601.544	31.166309
601.762	31.875054
601.979	32.138394
602.197	32.349118
602.415	32.705793
602.632	32.788154
602.850	32.766380
603.067	32.744236
603.285	32.845725
603.502	33.034922
603.720	33.168173
603.938	33.171848
604.155	33.035328
604.372	33.172797
604.590	33.339354
604.807	33.514744
605.025	33.790288
605.242	34.121654
605.460	34.463246
605.677	34.748428
605.894	34.873307
606.112	35.082175
606.329	35.345880
606.546	35.567362
606.764	35.524306
606.981	35.538677
607.198	35.396004
607.415	35.305301
607.633	35.281534
607.850	35.346825
608.067	35.566854
608.284	35.962684
608.501	36.247728
608.718	36.520578
608.935	36.864287
609.153	37.214278
609.370	37.668108
609.587	38.159792
609.804	38.366744
610.021	38.622153
610.238	38.877759
610.455	38.861595
610.672	38.861159
610.889	38.910861
611.106	39.033268
611.323	39.195002
611.540	39.387239
611.756	39.445546
611.973	39.533401
612.190	39.824429
612.407	39.977853
612.624	40.204127
612.841	40.597099
613.057	40.996713
613.274	41.275231
613.491	41.590621
613.708	41.762961
613.925	41.842121
614.141	42.099901
614.358	42.486040
614.575	42.855213
614.791	43.267284
615.008	43.549760
615.225	43.832867
615.441	44.061945
615.658	44.267803
615.874	44.387301
616.091	44.737991
616.307	44.997979
616.524	45.064799
616.740	45.069879
616.957	45.203613
617.173	45.502199
617.390	45.700015
617.606	45.828396
617.823	46.001930
618.039	46.234060
618.256	46.385031
618.472	46.374163
618.688	46.558068
618.905	46.957233
619.121	47.505826
619.337	47.732601
619.554	47.820509
619.770	48.006587
619.986	48.314311
620.202	48.370067
620.419	48.371915
620.635	48.542860
620.851	48.782727
621.067	49.057627
621.283	49.210342
621.499	49.332973
621.716	49.598672
621.932	49.760076
622.148	49.968421
622.364	50.175323
622.580	50.524502
622.796	51.049845
623.012	51.468720
623.228	51.801668
623.444	51.998674
623.660	52.109017
623.876	52.073246
624.092	52.156099
624.308	52.292942
624.524	52.491793
624.740	52.682757
624.955	52.809910
625.171	52.868655
625.387	52.979816
625.603	53.174357
625.819	53.490339
626.034	53.630568
626.250	53.673160
626.466	53.845057
626.682	54.216896
626.897	54.534949
627.113	54.785433
627.329	55.225045
627.544	55.709808
627.760	56.157502
627.976	56.392570
628.191	56.421060
628.407	56.602550
628.623	57.023623
628.838	57.371270
629.054	57.402376
629.269	57.424325
629.485	57.555904
629.700	57.686844
629.916	57.701219
630.131	57.624745
630.347	57.668075
630.562	57.863719
630.777	58.085315
630.993	58.142522
631.208	58.171962
631.424	58.354998
631.639	58.243730
631.854	58.095236
632.070	57.988604
632.285	58.105552
632.500	58.438148
632.715	58.864525
632.931	59.278255
633.146	59.445109
633.361	59.520926
633.576	59.607799
633.791	59.759400
634.007	60.146928
634.222	60.629741
634.437	61.193551
634.652	61.482568
634.867	61.646652
635.082	61.737512
635.297	61.742077
635.512	61.868419
635.727	62.087268
635.942	62.341157
636.157	62.539557
636.372	62.794559
636.587	62.917845
636.802	62.888334
637.017	63.011229
637.232	63.015060
637.447	63.336895
637.662	63.899034
637.876	64.364206
638.091	64.764247
638.306	65.088830
638.521	65.456694
638.736	65.778141
638.951	65.942532
639.165	65.890373
639.380	65.827872
639.595	66.009867
639.809	65.937690
640.024	65.760192
640.239	65.812891
640.453	65.930651
640.668	65.898156
640.883	65.825372
641.097	65.751616
641.312	65.919311
641.526	66.089034
641.741	66.076274
641.955	65.863710
642.170	65.784791
642.384	65.765737
642.599	65.729463
642.813	65.545197
643.028	65.443160
643.242	65.375243
643.457	65.466933
643.671	65.601659
643.885	65.841120
644.100	66.285241
644.314	66.954281
644.528	67.446100
644.743	67.718943
644.957	67.961459
645.171	68.638996
645.386	69.367600
645.600	69.862571
645.814	70.049301
646.028	70.135602
646.242	70.329982
646.457	70.377965
646.671	70.244928
646.885	70.250921
647.099	70.240146
647.313	70.323564
647.527	70.245395
647.741	70.133213
647.955	70.162673
648.169	70.086425
648.383	69.729842
648.597	69.298302
648.811	68.950849
649.025	68.590534
649.239	68.361688
649.453	68.476786
649.667	68.454112
649.881	68.299119
650.095	68.046117
650.309	67.651973
650.523	67.715919
650.737	68.153583
650.950	68.665751
651.164	69.317060
651.378	69.954660
651.592	70.413295
651.805	70.653006
652.019	70.961534
652.233	71.097262
652.447	71.256415
652.660	71.682108
652.874	71.799834
653.088	71.631673
653.301	71.411500
653.515	71.254724
653.728	71.206568
653.942	71.104561
654.156	71.150741
654.369	71.197097
654.583	71.442672
654.796	71.964069
655.010	72.406633
655.223	72.759821
655.437	72.987890
655.650	73.109042
655.863	72.988722
656.077	72.994345
656.290	73.148105
656.504	73.143061
656.717	73.085406
656.930	73.049217
657.144	72.826602
657.357	72.636426
657.570	72.603254
657.783	72.748326
657.997	73.055924
658.210	73.377670
658.423	73.406955
658.636	73.341663
658.849	73.246513
659.063	73.186563
659.276	73.410686
659.489	73.762892
659.702	73.918158
659.915	73.768558
660.128	73.600330
660.341	73.461314
660.554	73.430226
660.767	73.419815
660.980	73.382226
661.193	73.493990
661.406	73.690482
661.619	73.514551
661.832	73.103629
662.045	72.668813
662.258	72.729100
662.471	72.995457
662.684	73.093853
662.897	73.032517
663.110	72.924241
663.322	72.704170
663.535	72.712541
663.748	72.854856
663.961	73.016152
664.174	73.168812
664.386	73.218156
664.599	73.124273
664.812	73.114748
665.024	73.329856
665.237	73.719347
665.450	74.362310
665.662	75.166455
665.875	75.620281
666.088	75.825416
666.300	75.967448
666.513	76.341398
666.725	76.981486
666.938	77.466196
667.150	77.540739
667.363	77.435909
667.575	77.364126
667.788	77.093508
668.000	76.654005
668.213	76.327151
668.425	76.223308
668.638	76.276641
668.850	76.043721
669.062	75.886813
669.275	76.067950
669.487	76.372312
669.699	76.548808
669.912	76.534256
670.124	76.498277
670.336	76.678695
670.548	76.746404
670.761	76.748012
670.973	76.749533
671.185	76.766309
671.397	76.686081
671.609	76.373484
671.822	76.316605
672.034	76.534767
672.246	76.860786
672.458	77.277793
672.670	77.373732
672.882	77.366669
673.094	77.120333
673.306	76.993393
673.518	77.201616
673.730	77.439055
673.942	77.841068
674.154	77.970742
674.366	77.712542
674.578	77.424582
674.790	77.135810
675.002	77.031979
675.214	76.966576
675.425	77.156613
675.637	77.317139
675.849	77.338605
676.061	77.372224
676.273	77.128279
676.484	76.899341
676.696	76.880865
676.908	76.799464
677.120	76.614338
677.331	76.510680
677.543	76.618613
677.755	76.936240
677.966	77.228833
678.178	77.174742
678.389	77.083990
678.601	77.262245
678.813	77.490927
679.024	77.638326
679.236	77.617544
679.447	77.718915
679.659	77.937304
679.870	78.226333
680.082	78.006259
680.293	77.807636
680.505	78.034407
680.716	78.163971
680.927	78.206006
681.139	78.189387
681.350	78.280858
681.562	78.623287
681.773	78.880086
681.984	78.637770
682.196	77.961016
682.407	77.640083
682.618	77.364380
682.829	77.019203
683.041	76.868377
683.252	76.787282
683.463	76.848087
683.674	76.987240
683.885	77.065785
684.097	77.049039
684.308	77.151521
684.519	77.413147
684.730	77.635797
684.941	77.926350
685.152	78.224211
685.363	78.385703
685.574	78.361537
685.785	78.197263
685.996	77.921171
686.207	77.697487
686.418	77.690147
686.629	78.023482
686.840	78.498738
687.051	78.779908
687.262	78.723408
687.473	78.470266
687.684	78.360451
687.894	78.303118
688.105	78.252852
688.316	78.276581
688.527	78.215714
688.738	78.099870
688.948	77.650441
689.159	76.964918
689.370	76.436457
689.580	75.952969
689.791	75.621148
690.002	75.279528
690.212	75.010964
690.423	75.025306
690.634	75.137803
690.844	75.225189
691.055	75.336329
691.266	75.821531
691.476	76.652010
691.687	77.279224
691.897	77.672231
692.108	77.900602
692.318	77.995769
692.529	78.086096
692.739	78.189643
692.949	78.236303
693.160	78.357633
693.370	78.418537
693.581	78.281496
693.791	78.106550
694.001	78.061454
694.212	78.364758
694.422	78.932836
694.632	79.340703
694.843	79.288582
695.053	79.067313
695.263	78.948015
695.473	79.010930
695.683	79.255503
695.894	79.526360
696.104	79.664989
696.314	79.837135
696.524	79.830701
696.734	79.378129
696.944	79.229986
697.154	79.519321
697.365	79.519795
697.575	79.359251
697.785	79.174025
697.995	78.852763
698.205	78.634480
698.415	78.576987
698.625	78.506872
698.834	78.648064
699.044	79.122963
699.254	79.451114
699.464	79.807807
699.674	80.448941
699.884	80.592824
700.094	80.482217
700.304	80.355114
700.513	80.053657
700.723	79.334496
700.933	78.578613
701.143	77.858177
701.353	77.010324
701.562	76.303678
701.772	75.681484
701.982	75.257575
702.191	75.292093
702.401	75.359044
702.611	75.508636
702.820	75.650394
703.030	76.120546
703.239	76.444338
703.449	76.593594
703.659	77.026358
703.868	77.583946
704.078	78.164155
704.287	78.472673
704.497	78.451197
704.706	78.117893
704.916	77.636393
705.125	77.220347
705.334	76.944741
705.544	77.116419
705.753	77.304651
705.962	77.170052
706.172	76.779452
706.381	76.453979
706.590	76.191175
706.800	76.233635
707.009	76.618211
707.218	77.079846
707.428	77.471413
707.637	77.320428
707.846	76.972082
708.055	77.261210
708.264	78.008715
708.474	78.814538
708.683	79.177812
708.892	79.248248
709.101	79.183438
709.310	79.042594
709.519	78.947274
709.728	78.914138
709.937	79.463224
710.146	80.012839
710.355	79.632732
710.564	78.909338
710.773	78.138217
710.982	77.447817
711.191	77.095081
711.400	77.011307
711.609	77.169979
711.818	77.335098
712.027	77.445766
712.235	77.331847
712.444	77.112104
712.653	77.198817
712.862	77.350020
713.071	77.380476
713.279	77.343458
713.488	77.217046
713.697	77.166062
713.906	77.068285
714.114	76.924485
714.323	76.773257
714.532	76.610762
714.740	76.308871
714.949	76.082473
715.157	76.050501
715.366	76.190256
715.575	76.369905
715.783	76.592315
715.992	76.519008
716.200	76.142873
716.409	75.740059
716.617	75.413911
716.826	75.130513
717.034	75.133401
717.242	75.262541
717.451	75.462402
717.659	75.811710
717.868	76.163417
718.076	76.362342
718.284	76.534733
718.493	76.763646
718.701	76.963020
718.909	77.226811
719.118	77.591300
719.326	77.736805
719.534	77.516107
719.742	77.049708
719.951	76.561299
720.159	76.215689
720.367	76.013662
720.575	75.869622
720.783	75.740851
720.991	75.584398
721.199	75.483350
721.408	75.338631
721.616	75.398755
721.824	75.754821
722.032	75.902221
722.240	75.744998
722.448	75.714978
722.656	75.687960
722.864	75.469634
723.072	75.314918
723.280	75.092947
723.487	74.380188
723.695	73.719511
723.903	73.200206
724.111	72.674504
724.319	72.333966
724.527	72.184176
724.735	72.154599
724.942	72.091628
725.150	72.075625
725.358	71.997942
725.566	72.180267
725.773	72.800334
725.981	73.172942
726.189	73.165006
726.396	73.185747
726.604	73.191001
726.812	73.065409
727.019	72.697171
727.227	72.176235
727.435	71.833748
727.642	71.902234
727.850	71.841096
728.057	71.392163
728.265	71.043393
728.472	71.046605
728.680	70.864403
728.887	70.535322
729.095	70.331060
729.302	70.253164
729.509	70.238116
729.717	70.339267
729.924	70.366778
730.132	70.433145
730.339	70.736272
730.546	70.993245
730.753	70.906280
730.961	70.755280
731.168	70.774682
731.375	70.798989
731.583	70.750636
731.790	71.005236
731.997	71.427589
732.204	71.564537
732.411	71.373105
732.618	70.985049
732.826	70.724051
733.033	70.726881
733.240	70.949601
733.447	71.176305
733.654	71.261943
733.861	71.297373
734.068	71.105110
734.275	70.739852
734.482	70.413478
734.689	70.125987
734.896	69.917641
735.103	69.683672
735.310	69.402829
735.517	69.087226
735.724	68.991753
735.931	69.182145
736.137	69.248004
736.344	69.269788
736.551	69.183683
736.758	68.911793
736.965	68.808407
737.171	69.001104
737.378	69.271295
737.585	69.414497
737.792	69.488440
737.998	69.601545
738.205	69.523557
738.412	69.231750
738.618	68.883348
738.825	68.612173
739.032	68.706086
739.238	68.923027
739.445	69.021220
739.651	68.793204
739.858	68.460938
740.064	68.008274
740.271	67.304558
740.477	66.886207
740.684	66.801144
740.890	66.710424
741.097	66.463234
741.303	65.841281
741.510	65.330078
741.716	64.896185
741.922	64.489366
742.129	64.120002
742.335	63.948983
742.541	63.785545
742.748	63.426259
742.954	63.225821
743.160	63.046736
743.366	62.949643
743.573	62.968336
743.779	62.923627
743.985	62.895651
744.191	63.069937
744.397	63.408589
744.604	63.510756
744.810	63.536421
745.016	63.751903
745.222	63.900724
745.428	64.078141
745.634	64.251133
745.840	64.631716
746.046	64.846796
746.252	64.878597
746.458	64.801116
746.664	64.516917
746.870	64.310601
747.076	63.916433
747.282	63.346730
747.488	63.165289
747.694	63.265686
747.900	63.478637
748.105	63.640804
748.311	63.674124
748.517	63.539530
748.723	63.339989
748.929	63.148597
749.134	62.803791
749.340	62.428335
749.546	62.008682
749.752	61.296892
749.957	60.496364
750.163	59.739743
750.369	58.902508
750.574	58.266518
750.780	57.847976
750.985	57.342212
751.191	56.979373
751.397	57.018744
751.602	57.282737
751.808	57.485310
752.013	57.638110
752.219	57.622550
752.424	57.344024
752.630	56.992955
752.835	56.758732
753.041	56.621180
753.246	56.670924
753.451	56.629195
753.657	56.449860
753.862	56.450044
754.067	56.369052
754.273	56.075205
754.478	55.919805
754.683	55.751810
754.889	55.590757
755.094	55.344001
755.299	55.003474
755.504	54.575536
755.710	54.162265
755.915	53.681052
756.120	52.880288
756.325	52.262384
756.530	51.847813
756.735	51.340327
756.940	50.909891
757.146	50.603385
757.351	50.359690
757.556	50.179283
757.761	50.262614
757.966	50.447210
758.171	50.565409
758.376	50.654449
758.581	50.643765
758.786	50.631547
758.990	50.634694
759.195	50.638062
759.400	50.521406
759.605	50.194902
759.810	49.825547
760.015	49.281642
760.220	48.785203
760.424	48.391237
760.629	48.159140
760.834	47.831700
761.039	47.414082
761.244	47.049667
761.448	46.583497
761.653	46.157317
761.858	45.852035
762.062	45.520618
762.267	45.186832
762.472	44.776733
762.676	44.511838
762.881	44.329862
763.085	44.149865
763.290	43.983412
763.494	43.603357
763.699	43.228471
763.903	42.818165
764.108	42.439001
764.312	42.046477
764.517	41.653244
764.721	41.370689
764.926	40.978380
765.130	40.294446
765.335	39.747308
765.539	39.306162
765.743	38.973425
765.948	38.703230
766.152	38.368215
766.356	37.890645
766.560	37.682073
766.765	37.660832
766.969	37.473317
767.173	37.307023
767.377	37.408385
767.582	37.538011
767.786	37.387277
767.990	37.126827
768.194	36.895869
768.398	36.741389
768.602	36.570321
768.806	36.180470
769.010	35.614729
769.215	35.044766
769.419	34.620187
769.623	34.166802
769.827	33.639993
770.031	33.162685
770.234	32.644607
770.438	32.147001
770.642	31.732384
770.846	31.431552
771.050	31.097547
771.254	30.752766
771.458	30.542471
771.662	30.221625
771.866	29.868276
772.069	29.542453
772.273	29.246469
772.477	29.005744
772.681	28.718605
772.885	28.363703
773.088	28.002620
773.292	27.673681
773.496	27.332029
773.699	26.926071
773.903	26.495856
774.107	26.120739
774.310	25.704173
774.514	25.199682
774.717	24.857443
774.921	24.608434
775.124	24.464286
775.328	24.331371
775.531	24.155065
775.735	23.929906
775.938	23.568997
776.142	23.146574
776.345	22.796259
776.549	22.498242
776.752	22.263702
776.956	21.950552
777.159	21.597164
777.362	21.056381
777.566	20.521666
777.769	20.068430
777.972	19.765031
778.176	19.536494
778.379	19.308079
778.582	18.968326
778.785	18.672746
778.989	18.530438
779.192	18.331380
779.395	18.086634
779.598	17.940877
779.801	17.743870
780.004	17.412592
780.207	16.965466
780.411	16.630318
780.614	16.516712
780.817	16.379396
781.020	16.217349
781.223	15.841165
781.426	15.507565
781.629	15.184308
781.832	14.808755
782.035	14.509096
782.238	14.261787
782.440	14.071655
782.643	13.952529
782.846	13.711524
783.049	13.434365
783.252	13.086639
783.455	12.837117
783.658	12.655289
783.860	12.532173
784.063	12.453725
784.266	12.332740
784.469	12.272677
784.671	12.307292
784.874	12.225584
785.077	12.128277
785.279	12.072555
785.482	12.116461
785.685	12.222756
785.887	12.200904
786.090	12.135658
786.293	12.036942
786.495	11.950941
786.698	11.855121
786.900	11.606294
787.103	11.390212
787.305	11.202567
787.508	11.167709
787.710	10.988969
787.913	10.736047
788.115	10.523046
788.317	10.295896
788.520	10.136861
788.722	10.053222
788.924	10.040034
789.127	10.147805
789.329	10.226615
789.531	10.264316
789.734	10.286782
789.936	10.396199
790.138	10.433528
790.340	10.533187
790.543	10.676033
790.745	10.748104
790.947	10.799309
791.149	10.742569
791.351	10.659279
791.553	10.542721
791.756	10.466036
791.958	10.441888
792.160	10.427921
792.362	10.484383
792.564	10.501795
792.766	10.567199
792.968	10.672699
793.170	10.724952
793.372	10.793626
793.574	10.837976
793.776	11.102652
793.978	11.302269
794.180	11.432456
794.381	11.592557
794.583	11.796759
794.785	11.972129
794.987	12.002625
795.189	12.198208
795.391	12.461373
795.592	12.716233
795.794	12.916212
795.996	13.038015
796.198	13.275040
796.399	13.514971
796.601	13.621973
796.803	13.739207
797.004	14.001557
797.206	14.409576
797.407	14.573001
797.609	14.640733
797.811	14.817557
798.012	15.133664
798.214	15.314030
798.415	15.442568
798.617	15.535879
798.818	15.730551
799.020	15.947292
799.221	16.034314
799.423	16.017369
799.624	16.016644
799.826	16.176756
800.027	16.447965
800.228	16.676402
800.430	16.983690
800.631	17.267409
800.832	17.370054
801.034	17.468138
801.235	17.745581
801.436	17.950941
801.637	18.300825
801.839	18.807022
802.040	19.081991
802.241	19.143688
802.442	19.361343
802.643	19.442618
802.844	19.560155
803.046	19.798463
803.247	20.128973
803.448	20.269609
803.649	20.594452
803.850	20.857944
804.051	21.209719
804.252	21.687916
804.453	22.123053
804.654	22.394491
804.855	22.838568
805.056	23.209782
805.257	23.572777
805.458	23.886822
805.659	24.246531
805.859	24.535672
806.060	24.802134
806.261	24.884470
806.462	25.026364
806.663	25.240427
806.864	25.407991
807.064	25.546353
807.265	25.806734
807.466	26.055149
807.667	26.289149
807.867	26.608391
808.068	27.046781
808.269	27.414195
808.469	27.843192
808.670	28.183710
808.870	28.435393
809.071	28.659587
809.272	28.873232
809.472	29.013231
809.673	29.201222
809.873	29.394136
810.074	29.461566
810.274	29.369853
810.475	29.509634
810.675	29.782510
810.876	30.032220
811.076	30.348817
811.276	30.778736
811.477	31.115015
811.677	31.321370
811.878	31.556265
812.078	31.765065
812.278	31.895168
812.479	32.278211
812.679	32.475699
812.879	32.529829
813.079	32.584188
813.280	32.737246
813.480	32.876836
813.680	32.996806
813.880	33.300917
814.080	33.885513
814.280	34.508028
814.480	35.019949
814.681	35.344024
814.881	35.712399
815.081	35.962830
815.281	36.385661
815.481	36.890695
815.681	37.411453
815.881	37.836861
816.081	38.030016
816.281	37.810127
816.481	37.634638
816.681	37.751061
816.880	38.049541
817.080	38.303127
817.280	38.697643
817.480	38.947453
817.680	38.823081
817.880	38.788306
818.080	39.103766
818.279	39.419910
818.479	39.953529
818.679	40.542603
818.879	40.850017
819.078	40.775589
819.278	40.604443
819.478	40.451756
819.677	40.505458
819.877	40.931801
820.077	41.228105
820.276	41.358894
820.476	41.592796
820.675	41.812201
820.875	42.125906
821.074	42.488473
821.274	42.866183
821.473	43.333775
821.673	43.802790
821.872	44.212625
822.072	44.504329
822.271	44.852513
822.471	45.107216
822.670	45.298986
822.869	45.402973
823.069	45.428419
823.268	45.547048
823.467	45.923083
823.667	46.365704
823.866	46.853209
824.065	47.290546
824.265	47.496666
824.464	47.514646
824.663	47.726906
824.862	48.174654
825.061	48.680930
825.261	48.787695
825.460	48.776437
825.659	48.724169
825.858	48.651232
826.057	48.669214
826.256	48.719134
826.455	48.793893
826.654	49.059805
826.853	49.252163
827.052	49.229995
827.251	49.149424
